timestamps,words,terms,TP9,AF7,AF8,TP10,Right AUX,Marker
1586284571.564875,60,1,70.80078125,-49.8046875,-47.36328125,17.08984375,0.0,0
1586284571.5687811,60,1,-8.7890625,-44.921875,-55.17578125,-32.2265625,0.0,0
1586284571.5726874,60,1,-127.9296875,-39.0625,-48.828125,-81.0546875,0.0,0
1586284571.5765936,60,1,-123.53515625,-37.59765625,-51.26953125,-69.82421875,0.0,0
1586284571.5805,60,1,1.953125,-36.62109375,-47.8515625,-11.71875,0.0,0
1586284571.5844061,60,1,83.49609375,-37.109375,-41.9921875,19.04296875,0.0,0
1586284571.5883124,60,1,31.25,-28.3203125,-42.96875,-13.671875,0.0,0
1586284571.5922186,60,1,-92.7734375,-43.45703125,-45.41015625,-61.5234375,0.0,0
1586284571.596125,60,1,-114.74609375,-49.31640625,-54.19921875,-68.359375,0.0,0
1586284571.6000311,60,1,-2.9296875,-51.7578125,-54.6875,-25.87890625,0.0,0
1586284571.6039374,60,1,82.03125,-42.96875,-46.875,10.7421875,0.0,0
1586284571.6078436,60,1,30.2734375,-26.85546875,-53.7109375,-12.6953125,0.0,0
1586284571.61175,60,1,-99.12109375,-29.296875,-58.10546875,-70.80078125,0.0,0
1586284571.6156561,60,1,-130.859375,-27.83203125,-37.109375,-80.078125,0.0,0
1586284571.6195624,60,1,-33.203125,-24.90234375,-28.80859375,-31.25,0.0,0
1586284571.6234686,60,1,63.4765625,-37.59765625,-31.25,18.06640625,0.0,0
1586284571.627375,60,1,32.71484375,-41.015625,-24.90234375,2.44140625,0.0,0
1586284571.6312811,60,1,-95.21484375,-30.2734375,-13.18359375,-61.5234375,0.0,0
1586284571.6351874,60,1,-150.87890625,-36.1328125,-12.20703125,-81.54296875,0.0,0
1586284571.6390936,60,1,-65.4296875,-45.41015625,-23.92578125,-28.80859375,0.0,0
1586284571.643,60,1,45.8984375,-42.48046875,-33.69140625,15.13671875,0.0,0
1586284571.6469061,60,1,36.62109375,-40.0390625,-29.296875,8.30078125,0.0,0
1586284571.6508124,60,1,-75.1953125,-38.0859375,-21.484375,-39.0625,0.0,0
1586284571.6547186,60,1,-138.18359375,-45.8984375,-18.06640625,-73.2421875,0.0,0
1586284571.658625,60,1,-65.4296875,-54.19921875,-16.6015625,-43.9453125,0.0,0
1586284571.6625311,60,1,58.10546875,-26.85546875,-3.41796875,19.04296875,0.0,0
1586284571.6664374,60,1,75.68359375,-12.20703125,6.34765625,35.15625,0.0,0
1586284571.6703436,60,1,-38.0859375,-15.13671875,-2.9296875,-29.296875,0.0,0
1586284571.67425,60,1,-125.9765625,-13.18359375,-14.16015625,-67.87109375,0.0,0
1586284571.6781561,60,1,-67.87109375,-19.53125,-10.7421875,-35.64453125,0.0,0
1586284571.6820624,60,1,62.01171875,-16.6015625,-0.48828125,16.6015625,0.0,0
1586284571.6859686,60,1,88.37890625,-19.53125,2.44140625,30.76171875,0.0,0
1586284571.689875,60,1,-27.34375,-30.76171875,-4.39453125,-26.85546875,0.0,0
1586284571.6937811,60,1,-129.8828125,-22.94921875,-6.34765625,-75.68359375,0.0,0
1586284571.6976874,60,1,-90.8203125,-23.92578125,5.859375,-54.6875,0.0,0
1586284571.7015936,60,1,36.62109375,-33.69140625,16.11328125,1.953125,0.0,0
1586284571.7055,60,1,83.0078125,-32.2265625,8.30078125,17.578125,0.0,0
1586284571.7094061,60,1,-17.578125,-21.97265625,-5.859375,-26.3671875,0.0,0
1586284571.7133124,60,1,-129.39453125,-6.34765625,-16.6015625,-76.66015625,0.0,0
1586284571.7172186,60,1,-101.07421875,-3.41796875,-15.625,-61.03515625,0.0,0
1586284571.721125,60,1,23.4375,-11.23046875,-11.71875,-2.9296875,0.0,0
1586284571.7250311,60,1,86.42578125,-17.578125,-2.9296875,23.92578125,0.0,0
1586284571.7289374,60,1,3.90625,-16.6015625,0.48828125,-6.34765625,0.0,0
1586284571.7328436,60,1,-111.328125,-13.671875,-15.13671875,-67.87109375,0.0,0
1586284571.73675,60,1,-100.09765625,-20.99609375,-23.4375,-64.453125,0.0,0
1586284571.7406561,60,1,22.94921875,-13.671875,-10.7421875,-4.39453125,0.0,0
1586284571.7445624,60,1,93.75,-8.7890625,-8.7890625,38.0859375,0.0,0
1586284571.7484686,60,1,24.4140625,-16.6015625,-16.11328125,10.25390625,0.0,0
1586284571.752375,60,1,-93.75,-18.06640625,-16.6015625,-44.921875,0.0,0
1586284571.7562811,60,1,-112.3046875,-20.5078125,-11.71875,-48.33984375,0.0,0
1586284571.7601874,60,1,-10.25390625,-23.92578125,-6.34765625,3.41796875,0.0,0
1586284571.7640936,60,1,76.66015625,-22.4609375,-7.32421875,35.64453125,0.0,0
1586284571.768,60,1,26.85546875,-21.97265625,-18.06640625,2.44140625,0.0,0
1586284571.7719061,60,1,-104.98046875,-36.1328125,-19.53125,-48.33984375,0.0,0
1586284571.7758124,60,1,-136.23046875,-38.0859375,-24.4140625,-58.59375,0.0,0
1586284571.7797186,60,1,-23.92578125,-36.1328125,-35.15625,-20.5078125,0.0,0
1586284571.783625,60,1,84.47265625,-46.875,-29.78515625,20.99609375,0.0,0
1586284571.7875311,60,1,53.22265625,-32.71484375,-18.06640625,17.08984375,0.0,0
1586284571.7914374,60,1,-70.3125,-17.08984375,-18.5546875,-35.64453125,0.0,0
1586284571.7953436,60,1,-125.9765625,-19.04296875,-27.83203125,-64.453125,0.0,0
1586284571.79925,60,1,-39.0625,-10.7421875,-43.9453125,-23.92578125,0.0,0
1586284571.8031561,60,1,76.66015625,-12.6953125,-52.24609375,28.3203125,0.0,0
1586284571.8070624,60,1,67.87109375,-24.4140625,-48.33984375,14.16015625,0.0,0
1586284571.8109686,60,1,-58.10546875,-23.92578125,-41.015625,-46.38671875,0.0,0
1586284571.814875,60,1,-150.87890625,-23.4375,-28.80859375,-77.1484375,0.0,0
1586284571.8187811,60,1,-67.87109375,-25.87890625,-27.34375,-35.15625,0.0,0
1586284571.8226874,60,1,73.73046875,-25.390625,-44.43359375,21.97265625,0.0,0
1586284571.8265936,60,1,75.1953125,-32.71484375,-36.1328125,14.16015625,0.0,0
1586284571.8305,60,1,-39.55078125,-42.48046875,-20.99609375,-39.0625,0.0,0
1586284571.8344061,60,1,-120.1171875,-22.94921875,-15.625,-62.01171875,0.0,0
1586284571.8383124,60,1,-57.12890625,-13.671875,-2.9296875,-29.296875,0.0,0
1586284571.8422186,60,1,72.75390625,-22.4609375,-8.30078125,30.2734375,0.0,0
1586284571.846125,60,1,87.40234375,-24.90234375,-23.92578125,30.76171875,0.0,0
1586284571.8500311,60,1,-37.59765625,-24.90234375,-42.48046875,-32.2265625,0.0,0
1586284571.8539374,60,1,-133.30078125,-25.390625,-49.31640625,-68.359375,0.0,0
1586284571.8578436,60,1,-85.44921875,-23.4375,-30.2734375,-43.9453125,0.0,0
1586284571.86175,60,1,41.015625,-21.97265625,-21.484375,12.6953125,0.0,0
1586284571.8656561,60,1,82.03125,-30.76171875,-23.4375,30.76171875,0.0,0
1586284571.8695624,60,1,-20.5078125,-35.15625,-21.484375,-28.3203125,0.0,0
1586284571.8734686,60,1,-126.46484375,-21.484375,-17.08984375,-78.61328125,0.0,0
1586284571.877375,60,1,-102.5390625,-23.4375,-31.25,-54.19921875,0.0,0
1586284571.8812811,60,1,21.97265625,-34.1796875,-44.43359375,4.8828125,0.0,0
1586284571.8851874,60,1,83.984375,-36.62109375,-41.015625,18.5546875,0.0,0
1586284571.8890936,60,1,0.9765625,-31.73828125,-38.57421875,-23.4375,0.0,0
1586284571.893,60,1,-113.76953125,-34.1796875,-36.1328125,-74.70703125,0.0,0
1586284571.8969061,60,1,-108.88671875,-34.1796875,-35.15625,-80.56640625,0.0,0
1586284571.9008124,60,1,18.5546875,-29.296875,-37.59765625,-23.92578125,0.0,0
1586284571.9047186,60,1,99.609375,-32.2265625,-38.57421875,13.671875,0.0,0
1586284571.908625,60,1,20.01953125,-37.109375,-31.73828125,-27.83203125,0.0,0
1586284571.9125311,60,1,-100.5859375,-34.66796875,-21.484375,-79.58984375,0.0,0
1586284571.9164374,60,1,-106.4453125,-25.390625,-28.3203125,-76.66015625,0.0,0
1586284571.9203436,60,1,9.27734375,-18.06640625,-31.25,-14.6484375,0.0,0
1586284571.92425,60,1,101.07421875,-6.34765625,-25.390625,41.9921875,0.0,0
1586284571.9281561,60,1,42.96875,-8.30078125,-32.71484375,5.859375,0.0,0
1586284571.9320624,60,1,-88.8671875,-24.90234375,-37.59765625,-62.5,0.0,0
1586284571.9359686,60,1,-110.3515625,-28.80859375,-40.52734375,-65.91796875,0.0,0
1586284571.939875,60,1,8.7890625,-24.4140625,-44.921875,-4.39453125,0.0,0
1586284571.9437811,60,1,111.81640625,-20.5078125,-38.57421875,41.015625,0.0,0
1586284571.9476874,60,1,59.08203125,-27.34375,-44.43359375,14.6484375,0.0,0
1586284571.9515936,60,1,-83.49609375,-33.203125,-45.41015625,-40.52734375,0.0,0
1586284571.9555,60,1,-109.86328125,-17.08984375,-20.99609375,-55.17578125,0.0,0
1586284571.9594061,60,1,-1.953125,-18.5546875,-16.11328125,-8.7890625,0.0,0
1586284571.9633124,60,1,94.7265625,-19.04296875,-28.3203125,40.52734375,0.0,0
1586284571.9672186,60,1,64.94140625,-12.6953125,-27.34375,27.34375,0.0,0
1586284571.971125,60,1,-59.5703125,-19.04296875,-20.5078125,-38.57421875,0.0,0
1586284571.9750311,60,1,-125.9765625,-20.01953125,-22.4609375,-71.2890625,0.0,0
1586284571.9789374,60,1,-35.15625,-25.87890625,-14.16015625,-18.5546875,0.0,0
1586284571.9828436,60,1,85.44921875,-26.3671875,-3.41796875,33.69140625,0.0,0
1586284571.98675,60,1,79.58984375,-8.30078125,-8.7890625,12.6953125,0.0,0
1586284571.9906561,60,1,-45.41015625,-3.90625,-17.08984375,-45.41015625,0.0,0
1586284571.9945624,60,1,-131.8359375,-14.6484375,-24.4140625,-72.265625,0.0,0
1586284571.9984686,60,1,-71.2890625,-26.3671875,-25.87890625,-40.52734375,0.0,0
1586284572.002375,60,1,55.6640625,-20.99609375,-27.83203125,15.625,0.0,0
1586284572.0062811,60,1,81.0546875,-9.27734375,-38.57421875,25.390625,0.0,0
1586284572.0101874,60,1,-25.390625,-11.71875,-46.38671875,-32.2265625,0.0,0
1586284572.0140936,60,1,-119.62890625,-22.4609375,-38.57421875,-66.40625,0.0,0
1586284572.018,60,1,-71.77734375,-16.11328125,-36.62109375,-46.38671875,0.0,0
1586284572.0219061,60,1,53.7109375,-7.32421875,-44.43359375,0.0,0.0,0
1586284572.0258124,60,1,86.42578125,-8.7890625,-37.109375,20.99609375,0.0,0
1586284572.0297186,60,1,-5.37109375,-15.625,-26.85546875,-22.94921875,0.0,0
1586284572.033625,60,1,-108.88671875,-20.99609375,-30.2734375,-71.2890625,0.0,0
1586284572.0375311,60,1,-81.54296875,-25.390625,-28.3203125,-48.33984375,0.0,0
1586284572.0414374,60,1,46.875,-26.3671875,-22.4609375,22.94921875,0.0,0
1586284572.0453436,60,1,100.09765625,-17.08984375,-18.5546875,41.9921875,0.0,0
1586284572.04925,60,1,6.8359375,-9.27734375,-25.390625,-3.41796875,0.0,0
1586284572.0531561,60,1,-116.2109375,-12.6953125,-27.83203125,-59.5703125,0.0,0
1586284572.0570624,60,1,-105.95703125,-20.5078125,-21.97265625,-54.19921875,0.0,0
1586284572.0609686,60,1,18.06640625,-22.4609375,-27.83203125,0.48828125,0.0,0
1586284572.064875,60,1,89.84375,-23.4375,-33.203125,24.4140625,0.0,0
1586284572.0687811,60,1,20.01953125,-29.296875,-31.25,-1.46484375,0.0,0
1586284572.0726874,60,1,-101.5625,-29.296875,-34.1796875,-56.640625,0.0,0
1586284572.0765936,60,1,-112.3046875,-18.06640625,-32.71484375,-67.3828125,0.0,0
1586284572.0805,60,1,6.8359375,-12.20703125,-31.73828125,-12.6953125,0.0,0
1586284572.0844061,60,1,96.19140625,-23.4375,-40.0390625,20.5078125,0.0,0
1586284572.0883124,60,1,36.1328125,-37.109375,-36.1328125,-2.9296875,0.0,0
1586284572.0922186,60,1,-88.37890625,-42.48046875,-23.92578125,-50.29296875,0.0,0
1586284572.096125,60,1,-114.2578125,-30.76171875,-20.5078125,-70.3125,0.0,0
1586284572.1000311,60,1,-1.953125,-8.30078125,-15.13671875,-24.4140625,0.0,0
1586284572.1039374,60,1,102.05078125,-2.44140625,-14.6484375,34.1796875,0.0,0
1586284572.1078436,60,1,61.5234375,-9.27734375,-11.71875,8.30078125,0.0,0
1586284572.11175,60,1,-58.10546875,-6.8359375,-22.94921875,-55.6640625,0.0,0
1586284572.1156561,60,1,-116.69921875,-12.20703125,-26.3671875,-75.1953125,0.0,0
1586284572.1195624,60,1,-39.0625,-15.13671875,-14.16015625,-32.71484375,0.0,0
1586284572.1234686,60,1,85.9375,-21.484375,-17.578125,20.99609375,0.0,0
1586284572.127375,60,1,71.77734375,-30.2734375,-29.78515625,9.765625,0.0,0
1586284572.1312811,60,1,-56.15234375,-24.4140625,-28.3203125,-44.921875,0.0,0
1586284572.1351874,60,1,-118.1640625,-17.578125,-21.97265625,-67.87109375,0.0,0
1586284572.1390936,60,1,-38.57421875,-17.578125,-30.76171875,-28.80859375,0.0,0
1586284572.143,60,1,71.77734375,-26.3671875,-39.0625,20.5078125,0.0,0
1586284572.1469061,60,1,72.265625,-38.57421875,-26.85546875,23.92578125,0.0,0
1586284572.1508124,60,1,-46.38671875,-36.62109375,-28.3203125,-36.1328125,0.0,0
1586284572.1547186,60,1,-125.48828125,-25.87890625,-39.55078125,-75.1953125,0.0,0
1586284572.158625,60,1,-55.6640625,-30.2734375,-27.34375,-32.2265625,0.0,0
1586284572.1625311,60,1,65.4296875,-30.2734375,-21.484375,20.99609375,0.0,0
1586284572.1664374,60,1,83.49609375,-15.625,-27.34375,8.30078125,0.0,0
1586284572.1703436,60,1,-32.71484375,-17.578125,-21.97265625,-53.22265625,0.0,0
1586284572.17425,60,1,-134.765625,-18.5546875,-20.99609375,-92.7734375,0.0,0
1586284572.1781561,60,1,-81.54296875,-13.671875,-23.92578125,-60.05859375,0.0,0
1586284572.1820624,60,1,49.8046875,-30.76171875,-22.4609375,4.8828125,0.0,0
1586284572.1859686,60,1,81.0546875,-43.9453125,-20.5078125,20.99609375,0.0,0
1586284572.189875,60,1,-23.4375,-29.78515625,-14.6484375,-27.34375,0.0,0
1586284572.1937811,60,1,-126.46484375,-13.671875,-17.578125,-79.58984375,0.0,0
1586284572.1976874,60,1,-89.84375,-9.27734375,-12.6953125,-61.5234375,0.0,0
1586284572.2015936,60,1,43.9453125,-2.9296875,-3.41796875,-1.953125,0.0,0
1586284572.2055,60,1,94.23828125,-3.41796875,0.0,25.390625,0.0,0
1586284572.2094061,60,1,-4.39453125,-9.765625,-8.30078125,-10.7421875,0.0,0
1586284572.2133124,60,1,-126.46484375,-11.71875,-20.99609375,-72.75390625,0.0,0
1586284572.2172186,60,1,-116.2109375,-13.671875,-23.92578125,-68.359375,0.0,0
1586284572.221125,60,1,21.97265625,-18.06640625,-16.11328125,-6.34765625,0.0,0
1586284572.2250311,60,1,100.09765625,-25.87890625,-17.578125,20.5078125,0.0,0
1586284572.2289374,60,1,28.3203125,-19.04296875,-31.25,-6.8359375,0.0,0
1586284572.2328436,60,1,-94.7265625,-20.5078125,-34.1796875,-59.5703125,0.0,0
1586284572.23675,60,1,-107.421875,-19.04296875,-22.94921875,-62.98828125,0.0,0
1586284572.2406561,60,1,8.30078125,-16.6015625,-12.20703125,2.9296875,0.0,0
1586284572.2445624,60,1,93.26171875,-18.06640625,-14.16015625,37.59765625,0.0,0
1586284572.2484686,60,1,29.296875,-17.578125,-25.390625,-1.953125,0.0,0
1586284572.252375,60,1,-108.3984375,-25.390625,-17.578125,-58.59375,0.0,0
1586284572.2562811,60,1,-125.0,-25.87890625,-8.7890625,-68.359375,0.0,0
1586284572.2601874,60,1,-4.39453125,-28.80859375,-17.578125,-26.3671875,0.0,0
1586284572.2640936,60,1,103.02734375,-29.78515625,-13.18359375,30.2734375,0.0,0
1586284572.268,60,1,71.77734375,-14.6484375,-8.7890625,15.625,0.0,0
1586284572.2719061,60,1,-57.6171875,-5.859375,-10.7421875,-49.31640625,0.0,0
1586284572.2758124,60,1,-103.515625,-14.16015625,-24.90234375,-60.05859375,0.0,0
1586284572.2797186,60,1,4.39453125,-36.1328125,-40.52734375,-3.41796875,0.0,0
1586284572.283625,60,1,105.95703125,-36.62109375,-41.50390625,45.41015625,0.0,0
1586284572.2875311,60,1,55.17578125,-23.4375,-40.52734375,20.99609375,0.0,0
1586284572.2914374,60,1,-60.05859375,-20.99609375,-30.76171875,-45.41015625,0.0,0
1586284572.2953436,60,1,-101.5625,-12.20703125,-20.5078125,-73.73046875,0.0,0
1586284572.29925,60,1,-9.765625,-12.20703125,-15.625,-28.80859375,0.0,0
1586284572.3031561,60,1,117.67578125,-11.71875,-7.8125,21.484375,0.0,0
1586284572.3070624,60,1,117.1875,2.44140625,-10.25390625,19.53125,0.0,0
1586284572.3109686,60,1,-19.04296875,0.0,-18.06640625,-40.52734375,0.0,0
1586284572.314875,60,1,-107.91015625,-20.5078125,-1.953125,-86.42578125,0.0,0
1586284572.3187811,60,1,-42.48046875,-27.83203125,-7.32421875,-54.6875,0.0,0
1586284572.3226874,60,1,79.1015625,-30.76171875,-14.16015625,16.11328125,0.0,0
1586284572.3265936,60,1,95.703125,-22.4609375,-1.46484375,31.73828125,0.0,0
1586284572.3305,60,1,-35.64453125,-16.6015625,-1.953125,-34.1796875,0.0,0
1586284572.3344061,60,1,-131.34765625,-21.97265625,-6.8359375,-78.61328125,0.0,0
1586284572.3383124,60,1,-72.265625,-17.08984375,-4.39453125,-44.921875,0.0,0
1586284572.3422186,60,1,68.84765625,-14.6484375,11.71875,19.53125,0.0,0
1586284572.346125,60,1,102.5390625,-23.92578125,13.18359375,31.73828125,0.0,0
1586284572.3500311,60,1,-21.97265625,-23.4375,0.48828125,-25.87890625,0.0,0
1586284572.3539374,60,1,-127.44140625,-18.5546875,-2.44140625,-67.3828125,0.0,0
1586284572.3578436,60,1,-84.47265625,-24.4140625,0.0,-48.828125,0.0,0
1586284572.36175,60,1,55.6640625,-27.83203125,7.8125,7.32421875,0.0,0
1586284572.3656561,60,1,114.2578125,-23.92578125,2.9296875,31.73828125,0.0,0
1586284572.3695624,60,1,7.8125,-24.4140625,-11.23046875,-18.06640625,0.0,0
1586284572.3734686,60,1,-113.76953125,-28.3203125,-17.578125,-64.94140625,0.0,0
1586284572.377375,60,1,-90.8203125,-29.78515625,-15.625,-47.8515625,0.0,0
1586284572.3812811,60,1,34.66796875,-30.2734375,-6.34765625,4.8828125,0.0,0
1586284572.3851874,60,1,103.515625,-25.390625,-2.9296875,41.9921875,0.0,0
1586284572.3890936,60,1,17.578125,-34.1796875,-13.671875,3.41796875,0.0,0
1586284572.393,60,1,-133.30078125,-31.73828125,-18.06640625,-64.94140625,0.0,0
1586284572.3969061,60,1,-120.60546875,-26.3671875,-10.7421875,-62.5,0.0,0
1586284572.4008124,60,1,26.85546875,-28.3203125,-18.06640625,2.9296875,0.0,0
1586284572.4047186,60,1,109.375,-15.625,-12.6953125,45.8984375,0.0,0
1586284572.408625,60,1,41.50390625,-17.08984375,-1.953125,8.7890625,0.0,0
1586284572.4125311,60,1,-97.16796875,-29.78515625,-19.04296875,-60.05859375,0.0,0
1586284572.4164374,60,1,-121.58203125,-35.15625,-23.4375,-59.5703125,0.0,0
1586284572.4203436,60,1,-0.9765625,-29.296875,-21.484375,1.953125,0.0,0
1586284572.42425,60,1,96.6796875,-28.3203125,-19.53125,35.64453125,0.0,0
1586284572.4281561,60,1,38.0859375,-29.296875,-16.11328125,8.30078125,0.0,0
1586284572.4320624,60,1,-104.4921875,-32.2265625,-15.625,-48.828125,0.0,0
1586284572.4359686,60,1,-142.08984375,-37.109375,-13.671875,-62.01171875,0.0,0
1586284572.439875,60,1,-33.203125,-32.2265625,-19.04296875,-21.484375,0.0,0
1586284572.4437811,60,1,82.51953125,-22.94921875,-16.6015625,33.203125,0.0,0
1586284572.4476874,60,1,53.22265625,-22.94921875,-4.39453125,27.34375,0.0,0
1586284572.4515936,60,1,-79.58984375,-32.2265625,0.9765625,-35.64453125,0.0,0
1586284572.4555,60,1,-136.23046875,-27.83203125,1.46484375,-65.91796875,0.0,0
1586284572.4594061,60,1,-48.828125,-26.3671875,6.34765625,-29.78515625,0.0,0
1586284572.4633124,60,1,60.05859375,-25.390625,8.30078125,21.484375,0.0,0
1586284572.4672186,60,1,65.91796875,-21.97265625,-3.41796875,7.32421875,0.0,0
1586284572.471125,60,1,-55.17578125,-34.66796875,-12.6953125,-57.6171875,0.0,0
1586284572.4750311,60,1,-140.625,-38.57421875,-13.671875,-90.8203125,0.0,0
1586284572.4789374,60,1,-63.96484375,-29.296875,-21.97265625,-52.734375,0.0,0
1586284572.4828436,60,1,62.5,-26.85546875,-31.73828125,1.46484375,0.0,0
1586284572.48675,60,1,66.89453125,-27.34375,-36.1328125,9.27734375,0.0,0
1586284572.4906561,60,1,-59.5703125,-26.85546875,-30.76171875,-37.59765625,0.0,0
1586284572.4945624,60,1,-148.92578125,-36.1328125,-19.53125,-73.2421875,0.0,0
1586284572.4984686,60,1,-72.75390625,-32.71484375,-11.23046875,-39.55078125,0.0,0
1586284572.502375,60,1,72.265625,-26.3671875,-4.8828125,22.94921875,0.0,0
1586284572.5062811,60,1,104.00390625,-23.92578125,-19.04296875,40.0390625,0.0,0
1586284572.5101874,60,1,-13.671875,-17.578125,-30.76171875,-16.11328125,0.0,0
1586284572.5140936,60,1,-126.953125,-24.90234375,-19.53125,-70.80078125,0.0,0
1586284572.518,60,1,-89.84375,-48.33984375,-20.01953125,-56.15234375,0.0,0
1586284572.5219061,60,1,38.57421875,-38.0859375,-19.04296875,7.8125,0.0,0
1586284572.5258124,60,1,84.9609375,-16.6015625,-19.53125,33.69140625,0.0,0
1586284572.5297186,60,1,-17.08984375,-20.5078125,-26.3671875,-14.16015625,0.0,0
1586284572.533625,60,1,-140.13671875,-30.2734375,-25.390625,-71.77734375,0.0,0
1586284572.5375311,60,1,-114.74609375,-31.73828125,-19.04296875,-59.08203125,0.0,0
1586284572.5414374,60,1,25.390625,-26.85546875,-22.4609375,8.30078125,0.0,0
1586284572.5453436,60,1,96.19140625,-35.15625,-34.66796875,29.78515625,0.0,0
1586284572.54925,60,1,-5.37109375,-41.015625,-35.64453125,-17.578125,0.0,0
1586284572.5531561,60,1,-143.06640625,-35.64453125,-29.296875,-65.4296875,0.0,0
1586284572.5570624,60,1,-123.53515625,-40.0390625,-22.4609375,-60.05859375,0.0,0
1586284572.5609686,60,1,12.20703125,-41.9921875,-13.671875,-1.953125,0.0,0
1586284572.564875,60,1,95.703125,-26.85546875,-7.32421875,39.55078125,0.0,0
1586284572.5687811,60,1,22.4609375,-24.90234375,-9.27734375,-0.9765625,0.0,0
1586284572.5726874,60,1,-105.46875,-26.85546875,-15.625,-70.3125,0.0,0
1586284572.5765936,60,1,-109.86328125,-16.11328125,-14.6484375,-67.87109375,0.0,0
1586284572.5805,60,1,6.34765625,-19.04296875,-9.27734375,-3.90625,0.0,0
1586284572.5844061,60,1,92.28515625,-28.3203125,-5.859375,41.50390625,0.0,0
1586284572.5883124,60,1,38.0859375,-23.92578125,8.30078125,11.71875,0.0,0
1586284572.5922186,60,1,-96.6796875,-14.16015625,16.11328125,-50.29296875,0.0,0
1586284572.596125,60,1,-132.8125,-18.5546875,3.90625,-66.89453125,0.0,0
1586284572.6000311,60,1,-35.64453125,-39.55078125,2.44140625,-18.5546875,0.0,0
1586284572.6039374,60,1,68.359375,-47.36328125,9.27734375,29.296875,0.0,0
1586284572.6078436,60,1,23.4375,-32.2265625,14.16015625,7.8125,0.0,0
1586284572.61175,60,1,-102.05078125,-25.87890625,23.4375,-53.7109375,0.0,0
1586284572.6156561,60,1,-140.625,-27.83203125,21.484375,-69.82421875,0.0,0
1586284572.6195624,60,1,-44.43359375,-23.4375,6.8359375,-18.06640625,0.0,0
1586284572.6234686,60,1,81.0546875,-19.04296875,4.8828125,33.203125,0.0,0
1586284572.627375,60,1,56.640625,-21.484375,11.23046875,14.16015625,0.0,0
1586284572.6312811,60,1,-77.1484375,-30.76171875,8.7890625,-47.8515625,0.0,0
1586284572.6351874,60,1,-145.99609375,-32.2265625,-0.9765625,-86.42578125,0.0,0
1586284572.6390936,60,1,-67.3828125,-19.04296875,-9.27734375,-48.33984375,0.0,0
1586284572.643,60,1,66.89453125,-17.08984375,-1.46484375,16.6015625,0.0,0
1586284572.6469061,60,1,71.77734375,-21.484375,11.23046875,31.73828125,0.0,0
1586284572.6508124,60,1,-58.10546875,-12.6953125,-0.48828125,-25.390625,0.0,0
1586284572.6547186,60,1,-145.01953125,-6.8359375,-16.6015625,-72.75390625,0.0,0
1586284572.658625,60,1,-84.47265625,-9.27734375,-9.765625,-42.48046875,0.0,0
1586284572.6625311,60,1,55.6640625,-9.765625,-2.9296875,24.90234375,0.0,0
1586284572.6664374,60,1,83.984375,-14.16015625,-9.27734375,27.83203125,0.0,0
1586284572.6703436,60,1,-36.62109375,-21.484375,-16.11328125,-31.25,0.0,0
1586284572.67425,60,1,-145.5078125,-19.53125,-23.92578125,-71.77734375,0.0,0
1586284572.6781561,60,1,-93.75,-16.11328125,-33.69140625,-52.734375,0.0,0
1586284572.6820624,60,1,53.7109375,-10.7421875,-34.1796875,11.23046875,0.0,0
1586284572.6859686,60,1,98.6328125,-5.859375,-30.2734375,31.25,0.0,0
1586284572.689875,60,1,-4.8828125,-3.41796875,-30.76171875,-14.16015625,0.0,0
1586284572.6937811,60,1,-119.62890625,-2.9296875,-35.15625,-68.359375,0.0,0
1586284572.6976874,60,1,-98.14453125,-9.27734375,-30.76171875,-56.640625,0.0,0
1586284572.7015936,60,1,34.66796875,-16.11328125,-20.5078125,9.765625,0.0,0
1586284572.7055,60,1,100.09765625,-19.04296875,-25.390625,40.52734375,0.0,0
1586284572.7094061,60,1,-22.4609375,-23.4375,-32.2265625,-16.6015625,0.0,0
1586284572.7133124,60,1,-138.671875,-18.5546875,-31.73828125,-67.87109375,0.0,0
1586284572.7172186,60,1,-109.86328125,-7.32421875,-21.97265625,-43.9453125,0.0,0
1586284572.721125,60,1,11.71875,-4.39453125,-16.11328125,6.8359375,0.0,0
1586284572.7250311,60,1,92.28515625,-6.8359375,-22.4609375,28.80859375,0.0,0
1586284572.7289374,60,1,19.53125,-10.7421875,-39.55078125,-1.46484375,0.0,0
1586284572.7328436,60,1,-113.28125,-18.5546875,-43.45703125,-56.640625,0.0,0
1586284572.73675,60,1,-128.90625,-26.3671875,-27.34375,-64.453125,0.0,0
1586284572.7406561,60,1,-2.9296875,-28.3203125,-20.01953125,-12.20703125,0.0,0
1586284572.7445624,60,1,96.19140625,-24.4140625,-27.34375,32.71484375,0.0,0
1586284572.7484686,60,1,35.15625,-21.97265625,-29.78515625,10.25390625,0.0,0
1586284572.752375,60,1,-106.93359375,-28.3203125,-33.69140625,-64.453125,0.0,0
1586284572.7562811,60,1,-138.671875,-26.85546875,-29.78515625,-79.1015625,0.0,0
1586284572.7601874,60,1,-34.1796875,-26.3671875,-18.5546875,-17.08984375,0.0,0
1586284572.7640936,60,1,69.3359375,-24.4140625,-26.3671875,32.71484375,0.0,0
1586284572.768,60,1,60.05859375,-22.94921875,-43.45703125,17.08984375,0.0,0
1586284572.7719061,60,1,-62.5,-33.203125,-47.8515625,-46.875,0.0,0
1586284572.7758124,60,1,-119.62890625,-24.90234375,-58.10546875,-72.265625,0.0,0
1586284572.7797186,60,1,-28.3203125,-13.671875,-69.82421875,-27.34375,0.0,0
1586284572.783625,60,1,83.0078125,-15.625,-66.40625,13.18359375,0.0,0
1586284572.7875311,60,1,58.59375,-20.99609375,-71.2890625,-1.46484375,0.0,0
1586284572.7914374,60,1,-74.21875,-23.4375,-74.21875,-50.78125,0.0,0
1586284572.7953436,60,1,-138.671875,-22.94921875,-62.5,-81.54296875,0.0,0
1586284572.79925,60,1,-48.33984375,-20.99609375,-54.6875,-38.0859375,0.0,0
1586284572.8031561,60,1,79.58984375,-24.4140625,-52.24609375,19.04296875,0.0,0
1586284572.8070624,60,1,77.63671875,-26.85546875,-46.38671875,21.97265625,0.0,0
1586284572.8109686,60,1,-41.50390625,-19.04296875,-43.9453125,-36.62109375,0.0,0
1586284572.814875,60,1,-126.46484375,-25.87890625,-54.19921875,-87.40234375,0.0,0
1586284572.8187811,60,1,-62.01171875,-40.52734375,-63.4765625,-56.15234375,0.0,0
1586284572.8226874,60,1,68.84765625,-23.92578125,-55.17578125,11.23046875,0.0,0
1586284572.8265936,60,1,81.0546875,-11.71875,-46.875,11.71875,0.0,0
1586284572.8305,60,1,-41.015625,-15.13671875,-52.24609375,-47.36328125,0.0,0
1586284572.8344061,60,1,-132.32421875,-14.6484375,-49.31640625,-81.0546875,0.0,0
1586284572.8383124,60,1,-88.37890625,-15.625,-47.8515625,-46.875,0.0,0
1586284572.8422186,60,1,46.38671875,-25.87890625,-43.9453125,18.5546875,0.0,0
1586284572.846125,60,1,88.37890625,-34.66796875,-41.015625,36.62109375,0.0,0
1586284572.8500311,60,1,-39.55078125,-34.1796875,-45.41015625,-9.765625,0.0,0
1586284572.8539374,60,1,-148.4375,-39.0625,-51.7578125,-52.24609375,0.0,0
1586284572.8578436,60,1,-100.5859375,-37.109375,-54.6875,-53.22265625,0.0,0
1586284572.86175,60,1,38.57421875,-28.3203125,-51.7578125,-3.41796875,0.0,0
1586284572.8656561,60,1,104.4921875,-27.83203125,-55.17578125,27.34375,0.0,0
1586284572.8695624,60,1,13.18359375,-23.4375,-51.26953125,-21.97265625,0.0,0
1586284572.8734686,60,1,-118.1640625,-23.92578125,-55.6640625,-82.03125,0.0,0
1586284572.877375,60,1,-113.76953125,-31.25,-59.5703125,-70.80078125,0.0,0
1586284572.8812811,60,1,24.4140625,-31.73828125,-43.45703125,-0.48828125,0.0,0
1586284572.8851874,60,1,104.00390625,-35.64453125,-42.48046875,39.0625,0.0,0
1586284572.8890936,60,1,20.5078125,-28.3203125,-36.1328125,-1.46484375,0.0,0
1586284572.893,60,1,-114.74609375,-19.53125,-34.66796875,-69.3359375,0.0,0
1586284572.8969061,60,1,-121.09375,-23.4375,-43.9453125,-70.3125,0.0,0
1586284572.9008124,60,1,10.25390625,-21.484375,-44.921875,-11.71875,0.0,0
1586284572.9047186,60,1,109.86328125,-19.53125,-47.8515625,36.1328125,0.0,0
1586284572.908625,60,1,44.43359375,-26.85546875,-50.29296875,11.71875,0.0,0
1586284572.9125311,60,1,-100.5859375,-32.71484375,-47.36328125,-61.5234375,0.0,0
1586284572.9164374,60,1,-130.37109375,-33.69140625,-51.26953125,-75.68359375,0.0,0
1586284572.9203436,60,1,-6.8359375,-41.50390625,-48.828125,-13.18359375,0.0,0
1586284572.92425,60,1,114.2578125,-30.2734375,-35.64453125,48.828125,0.0,0
1586284572.9281561,60,1,69.3359375,-19.04296875,-29.296875,27.83203125,0.0,0
1586284572.9320624,60,1,-85.44921875,-17.08984375,-27.83203125,-46.38671875,0.0,0
1586284572.9359686,60,1,-145.5078125,-15.625,-24.4140625,-68.84765625,0.0,0
1586284572.939875,60,1,-33.69140625,-21.484375,-22.4609375,-9.765625,0.0,0
1586284572.9437811,60,1,99.609375,-27.34375,-30.2734375,52.734375,0.0,0
1586284572.9476874,60,1,74.70703125,-29.78515625,-39.55078125,36.1328125,0.0,0
1586284572.9515936,60,1,-68.84765625,-28.80859375,-25.390625,-37.59765625,0.0,0
1586284572.9555,60,1,-141.11328125,-27.34375,0.9765625,-66.40625,0.0,0
1586284572.9594061,60,1,-49.31640625,-25.87890625,2.44140625,-16.11328125,0.0,0
1586284572.9633124,60,1,90.8203125,-11.71875,1.953125,48.33984375,0.0,0
1586284572.9672186,60,1,86.42578125,-8.30078125,3.90625,43.45703125,0.0,0
1586284572.971125,60,1,-49.31640625,-19.04296875,0.48828125,-25.87890625,0.0,0
1586284572.9750311,60,1,-134.765625,-30.76171875,-4.8828125,-67.3828125,0.0,0
1586284572.9789374,60,1,-55.17578125,-35.15625,-8.30078125,-30.76171875,0.0,0
1586284572.9828436,60,1,95.703125,-23.4375,-8.30078125,31.25,0.0,0
1586284572.98675,60,1,117.67578125,-17.08984375,-2.9296875,38.0859375,0.0,0
1586284572.9906561,60,1,-20.01953125,-27.83203125,-12.6953125,-28.3203125,0.0,0
1586284572.9945624,60,1,-129.8828125,-29.296875,-25.390625,-93.75,0.0,0
1586284572.9984686,60,1,-75.1953125,-18.5546875,-31.25,-75.68359375,0.0,0
1586284573.002375,60,1,71.2890625,-16.6015625,-33.203125,0.48828125,0.0,0
1586284573.0062811,60,1,114.74609375,-20.99609375,-31.25,30.76171875,0.0,0
1586284573.0101874,60,1,-3.90625,-21.97265625,-49.8046875,-26.85546875,0.0,0
1586284573.0140936,60,1,-132.8125,-26.85546875,-70.80078125,-83.49609375,0.0,0
1586284573.018,60,1,-103.515625,-24.4140625,-67.3828125,-69.3359375,0.0,0
1586284573.0219061,60,1,46.875,-19.53125,-51.7578125,2.9296875,0.0,0
1586284573.0258124,60,1,116.69921875,-23.92578125,-41.9921875,37.59765625,0.0,0
1586284573.0297186,60,1,10.7421875,-23.4375,-31.25,-10.25390625,0.0,0
1586284573.033625,60,1,-134.765625,-26.85546875,-36.62109375,-78.125,0.0,0
1586284573.0375311,60,1,-122.0703125,-30.76171875,-39.55078125,-67.3828125,0.0,0
1586284573.0414374,60,1,25.87890625,-28.80859375,-28.3203125,2.44140625,0.0,0
1586284573.0453436,60,1,106.93359375,-32.71484375,-20.01953125,35.64453125,0.0,0
1586284573.04925,60,1,17.578125,-43.45703125,-34.66796875,1.46484375,0.0,0
1586284573.0531561,60,1,-119.62890625,-44.921875,-49.8046875,-66.89453125,0.0,0
1586284573.0570624,60,1,-127.44140625,-44.43359375,-46.38671875,-71.77734375,0.0,0
1586284573.0609686,60,1,4.8828125,-41.50390625,-30.2734375,-6.34765625,0.0,0
1586284573.064875,60,1,93.26171875,-33.203125,-15.625,30.76171875,0.0,0
1586284573.0687811,60,1,20.99609375,-29.78515625,-13.18359375,-5.37109375,0.0,0
1586284573.0726874,60,1,-114.2578125,-33.203125,-15.13671875,-73.73046875,0.0,0
1586284573.0765936,60,1,-145.01953125,-38.57421875,-21.484375,-89.35546875,0.0,0
1586284573.0805,60,1,-21.484375,-42.48046875,-25.390625,-35.64453125,0.0,0
1586284573.0844061,60,1,93.75,-36.62109375,-16.6015625,22.4609375,0.0,0
1586284573.0883124,60,1,54.6875,-32.2265625,-8.30078125,7.8125,0.0,0
1586284573.0922186,60,1,-88.8671875,-36.1328125,-16.11328125,-60.546875,0.0,0
1586284573.096125,60,1,-137.6953125,-36.1328125,-29.296875,-89.84375,0.0,0
1586284573.1000311,60,1,-17.08984375,-45.41015625,-26.85546875,-42.48046875,0.0,0
1586284573.1039374,60,1,113.76953125,-39.0625,-11.23046875,24.90234375,0.0,0
1586284573.1078436,60,1,83.49609375,-24.4140625,-2.9296875,15.625,0.0,0
1586284573.11175,60,1,-61.5234375,-26.85546875,-23.4375,-54.6875,0.0,0
1586284573.1156561,60,1,-133.7890625,-32.2265625,-33.203125,-77.63671875,0.0,0
1586284573.1195624,60,1,-34.1796875,-31.73828125,-23.92578125,-29.78515625,0.0,0
1586284573.1234686,60,1,107.91015625,-35.15625,-28.3203125,34.66796875,0.0,0
1586284573.127375,60,1,109.375,-35.64453125,-29.296875,41.015625,0.0,0
1586284573.1312811,60,1,-29.296875,-35.15625,-35.64453125,-20.99609375,0.0,0
1586284573.1351874,60,1,-130.859375,-50.78125,-39.0625,-66.40625,0.0,0
1586284573.1390936,60,1,-58.10546875,-50.78125,-32.71484375,-27.34375,0.0,0
1586284573.143,60,1,83.984375,-44.43359375,-27.83203125,34.66796875,0.0,0
1586284573.1469061,60,1,91.796875,-41.015625,-15.625,36.1328125,0.0,0
1586284573.1508124,60,1,-53.22265625,-37.109375,-5.859375,-26.3671875,0.0,0
1586284573.1547186,60,1,-158.69140625,-35.15625,-13.671875,-81.0546875,0.0,0
1586284573.158625,60,1,-96.6796875,-37.59765625,-21.97265625,-50.78125,0.0,0
1586284573.1625311,60,1,53.7109375,-34.1796875,-25.390625,29.296875,0.0,0
1586284573.1664374,60,1,98.6328125,-37.59765625,-29.296875,43.9453125,0.0,0
1586284573.1703436,60,1,-26.85546875,-44.43359375,-26.3671875,-24.4140625,0.0,0
1586284573.17425,60,1,-143.06640625,-36.1328125,-16.11328125,-79.58984375,0.0,0
1586284573.1781561,60,1,-98.6328125,-35.64453125,-20.5078125,-57.6171875,0.0,0
1586284573.1820624,60,1,39.0625,-42.96875,-16.6015625,17.578125,0.0,0
1586284573.1859686,60,1,99.12109375,-34.1796875,-4.8828125,49.31640625,0.0,0
1586284573.189875,60,1,1.46484375,-23.92578125,-9.765625,-5.859375,0.0,0
1586284573.1937811,60,1,-135.7421875,-27.83203125,-15.625,-77.63671875,0.0,0
1586284573.1976874,60,1,-128.41796875,-33.203125,-18.5546875,-79.1015625,0.0,0
1586284573.2015936,60,1,13.671875,-32.71484375,-15.13671875,-17.578125,0.0,0
1586284573.2055,60,1,96.19140625,-22.94921875,-12.6953125,21.484375,0.0,0
1586284573.2094061,60,1,0.0,-16.11328125,-17.08984375,-20.01953125,0.0,0
1586284573.2133124,60,1,-154.296875,-19.04296875,-24.90234375,-103.515625,0.0,0
1586284573.2172186,60,1,-159.1796875,-22.4609375,-20.99609375,-116.2109375,0.0,0
1586284573.221125,60,1,-19.53125,-24.4140625,-14.6484375,-46.38671875,0.0,0
1586284573.2250311,60,1,68.359375,-26.85546875,-12.20703125,2.9296875,0.0,0
1586284573.2289374,60,1,-14.16015625,-32.71484375,-8.30078125,-30.2734375,0.0,0
1586284573.2328436,60,1,-161.1328125,-38.57421875,-4.8828125,-104.00390625,0.0,0
1586284573.23675,60,1,-175.29296875,-30.76171875,-7.32421875,-116.69921875,0.0,0
1586284573.2406561,60,1,-38.57421875,-24.4140625,-7.8125,-49.8046875,0.0,0
1586284573.2445624,60,1,83.0078125,-23.4375,-9.27734375,8.30078125,0.0,0
1586284573.2484686,60,1,32.2265625,-24.4140625,-16.11328125,-19.53125,0.0,0
1586284573.252375,60,1,-122.55859375,-24.90234375,-20.5078125,-82.03125,0.0,0
1586284573.2562811,60,1,-165.0390625,-18.5546875,-17.08984375,-90.8203125,0.0,0
1586284573.2601874,60,1,-43.9453125,-17.08984375,-23.4375,-32.2265625,0.0,0
1586284573.2640936,60,1,82.51953125,-21.484375,-22.4609375,37.59765625,0.0,0
1586284573.268,60,1,58.59375,-22.4609375,-11.71875,22.4609375,0.0,0
1586284573.2719061,60,1,-83.49609375,-31.73828125,-5.859375,-62.01171875,0.0,0
1586284573.2758124,60,1,-156.25,-41.9921875,-7.32421875,-96.6796875,0.0,0
1586284573.2797186,60,1,-52.734375,-32.71484375,-8.30078125,-37.59765625,0.0,0
1586284573.283625,60,1,84.9609375,-25.87890625,0.9765625,31.73828125,0.0,0
1586284573.2875311,60,1,70.3125,-26.85546875,0.48828125,20.5078125,0.0,0
1586284573.2914374,60,1,-76.171875,-28.80859375,-8.7890625,-45.41015625,0.0,0
1586284573.2953436,60,1,-166.50390625,-32.71484375,-11.23046875,-86.42578125,0.0,0
1586284573.29925,60,1,-79.58984375,-30.76171875,-14.16015625,-48.828125,0.0,0
1586284573.3031561,60,1,70.80078125,-27.83203125,-14.16015625,29.296875,0.0,0
1586284573.3070624,60,1,86.42578125,-32.2265625,-14.16015625,37.109375,0.0,0
1586284573.3109686,60,1,-54.19921875,-37.59765625,-17.08984375,-31.73828125,0.0,0
1586284573.314875,60,1,-154.296875,-39.55078125,-12.6953125,-78.125,0.0,0
1586284573.3187811,60,1,-84.47265625,-42.96875,-15.625,-42.96875,0.0,0
1586284573.3226874,60,1,57.6171875,-48.828125,-21.484375,22.4609375,0.0,0
1586284573.3265936,60,1,92.7734375,-38.57421875,-32.71484375,22.4609375,0.0,0
1586284573.3305,60,1,-36.62109375,-36.1328125,-38.57421875,-40.52734375,0.0,0
1586284573.3344061,60,1,-151.3671875,-36.1328125,-31.73828125,-87.890625,0.0,0
1586284573.3383124,60,1,-87.40234375,-23.4375,-26.85546875,-61.03515625,0.0,0
1586284573.3422186,60,1,61.03515625,-24.90234375,-38.57421875,16.11328125,0.0,0
1586284573.346125,60,1,111.328125,-27.34375,-47.36328125,41.015625,0.0,0
1586284573.3500311,60,1,-3.41796875,-26.85546875,-44.43359375,-12.6953125,0.0,0
1586284573.3539374,60,1,-131.8359375,-28.80859375,-38.0859375,-73.73046875,0.0,0
1586284573.3578436,60,1,-91.796875,-29.78515625,-27.83203125,-65.4296875,0.0,0
1586284573.36175,60,1,61.5234375,-36.1328125,-21.484375,11.71875,0.0,0
1586284573.3656561,60,1,111.81640625,-38.57421875,-21.484375,36.1328125,0.0,0
1586284573.3695624,60,1,14.6484375,-36.62109375,-33.203125,-18.5546875,0.0,0
1586284573.3734686,60,1,-117.67578125,-38.0859375,-42.96875,-79.1015625,0.0,0
1586284573.377375,60,1,-114.2578125,-39.0625,-39.55078125,-68.359375,0.0,0
1586284573.3812811,60,1,36.62109375,-34.66796875,-32.71484375,3.90625,0.0,0
1586284573.3851874,60,1,123.046875,-35.64453125,-27.34375,46.875,0.0,0
1586284573.3890936,60,1,33.69140625,-36.62109375,-24.4140625,5.37109375,0.0,0
1586284573.393,60,1,-117.67578125,-32.71484375,-31.73828125,-73.2421875,0.0,0
1586284573.3969061,60,1,-136.71875,-32.71484375,-37.109375,-79.1015625,0.0,0
1586284573.4008124,60,1,-3.41796875,-35.15625,-37.59765625,-10.25390625,0.0,0
1586284573.4047186,60,1,103.02734375,-31.73828125,-56.640625,40.0390625,0.0,0
1586284573.408625,60,1,35.64453125,-25.87890625,-53.7109375,1.953125,0.0,0
1586284573.4125311,60,1,-117.67578125,-35.15625,-48.33984375,-70.3125,0.0,0
1586284573.4164374,60,1,-154.296875,-35.15625,-53.7109375,-94.23828125,0.0,0
1586284573.4203436,60,1,-27.34375,-31.25,-49.31640625,-37.109375,0.0,0
1586284573.42425,60,1,98.6328125,-36.1328125,-39.55078125,37.59765625,0.0,0
1586284573.4281561,60,1,60.546875,-30.2734375,-36.62109375,10.7421875,0.0,0
1586284573.4320624,60,1,-85.44921875,-31.25,-34.1796875,-74.21875,0.0,0
1586284573.4359686,60,1,-142.578125,-41.9921875,-27.83203125,-95.703125,0.0,0
1586284573.439875,60,1,-40.52734375,-33.203125,-31.73828125,-34.66796875,0.0,0
1586284573.4437811,60,1,96.19140625,-26.3671875,-28.80859375,28.3203125,0.0,0
1586284573.4476874,60,1,83.984375,-27.34375,-20.01953125,17.578125,0.0,0
1586284573.4515936,60,1,-63.4765625,-28.3203125,-11.23046875,-41.50390625,0.0,0
1586284573.4555,60,1,-144.04296875,-37.109375,-9.765625,-74.21875,0.0,0
1586284573.4594061,60,1,-55.17578125,-39.0625,-20.99609375,-38.0859375,0.0,0
1586284573.4633124,60,1,86.9140625,-34.66796875,-27.34375,30.2734375,0.0,0
1586284573.4672186,60,1,90.33203125,-34.66796875,-14.6484375,41.50390625,0.0,0
1586284573.471125,60,1,-45.41015625,-41.015625,-14.16015625,-26.3671875,0.0,0
1586284573.4750311,60,1,-139.16015625,-36.1328125,-13.671875,-78.125,0.0,0
1586284573.4789374,60,1,-68.359375,-30.2734375,-0.9765625,-43.9453125,0.0,0
1586284573.4828436,60,1,76.171875,-29.78515625,7.32421875,27.83203125,0.0,0
1586284573.48675,60,1,98.14453125,-25.390625,1.46484375,37.59765625,0.0,0
1586284573.4906561,60,1,-33.203125,-29.78515625,-11.23046875,-24.4140625,0.0,0
1586284573.4945624,60,1,-147.4609375,-37.109375,-12.6953125,-77.1484375,0.0,0
1586284573.4984686,60,1,-94.7265625,-38.0859375,-7.32421875,-47.36328125,0.0,0
1586284573.502375,60,1,54.6875,-47.36328125,-7.8125,27.34375,0.0,0
1586284573.5062811,60,1,99.12109375,-47.8515625,-11.71875,50.29296875,0.0,0
1586284573.5101874,60,1,-22.4609375,-38.0859375,4.39453125,-0.9765625,0.0,0
1586284573.5140936,60,1,-151.85546875,-40.0390625,13.18359375,-62.5,0.0,0
1586284573.518,60,1,-118.1640625,-42.48046875,-18.06640625,-57.6171875,0.0,0
1586284573.5219061,60,1,31.73828125,-41.015625,-35.15625,9.27734375,0.0,0
1586284573.5258124,60,1,111.81640625,-30.76171875,-7.8125,40.52734375,0.0,0
1586284573.5297186,60,1,18.06640625,-28.80859375,5.37109375,-11.23046875,0.0,0
1586284573.533625,60,1,-125.0,-44.43359375,-2.9296875,-81.0546875,0.0,0
1586284573.5375311,60,1,-116.2109375,-52.24609375,-12.6953125,-79.1015625,0.0,0
1586284573.5414374,60,1,22.94921875,-43.45703125,-16.6015625,-7.32421875,0.0,0
1586284573.5453436,60,1,106.4453125,-43.45703125,-10.25390625,37.109375,0.0,0
1586284573.54925,60,1,22.94921875,-45.8984375,-16.6015625,0.0,0.0,0
1586284573.5531561,60,1,-125.9765625,-43.45703125,-20.5078125,-64.94140625,0.0,0
1586284573.5570624,60,1,-138.18359375,-39.0625,-20.5078125,-62.5,0.0,0
1586284573.5609686,60,1,-6.34765625,-34.1796875,-14.6484375,2.9296875,0.0,0
1586284573.564875,60,1,102.5390625,-29.78515625,-9.765625,43.45703125,0.0,0
1586284573.5687811,60,1,44.43359375,-31.73828125,-21.97265625,9.27734375,0.0,0
1586284573.5726874,60,1,-103.02734375,-40.0390625,-42.48046875,-63.4765625,0.0,0
1586284573.5765936,60,1,-132.32421875,-48.33984375,-56.640625,-81.54296875,0.0,0
1586284573.5805,60,1,-10.25390625,-40.0390625,-39.55078125,-18.06640625,0.0,0
1586284573.5844061,60,1,101.07421875,-36.1328125,-34.66796875,41.015625,0.0,0
1586284573.5883124,60,1,55.6640625,-41.50390625,-48.828125,20.01953125,0.0,0
1586284573.5922186,60,1,-87.890625,-41.9921875,-44.43359375,-45.41015625,0.0,0
1586284573.596125,60,1,-137.6953125,-41.50390625,-39.0625,-71.77734375,0.0,0
1586284573.6000311,60,1,-27.83203125,-43.9453125,-41.015625,-8.30078125,0.0,0
1586284573.6039374,60,1,97.16796875,-43.9453125,-36.1328125,56.640625,0.0,0
1586284573.6078436,60,1,73.73046875,-39.55078125,-34.66796875,25.390625,0.0,0
1586284573.61175,60,1,-79.1015625,-41.9921875,-39.55078125,-59.08203125,0.0,0
1586284573.6156561,60,1,-155.76171875,-48.828125,-24.4140625,-97.65625,0.0,0
1586284573.6195624,60,1,-43.9453125,-44.921875,-5.37109375,-44.921875,0.0,0
1586284573.6234686,60,1,94.23828125,-40.52734375,-10.7421875,20.99609375,0.0,0
1586284573.627375,61,1,85.44921875,-38.0859375,-19.53125,14.16015625,0.0,0
1586284573.6312811,61,1,-57.12890625,-38.57421875,-12.20703125,-51.7578125,0.0,0
1586284573.6351874,61,1,-144.04296875,-40.52734375,-12.20703125,-84.9609375,0.0,0
1586284573.6390936,61,1,-60.546875,-40.52734375,-26.3671875,-31.25,0.0,0
1586284573.643,61,1,86.9140625,-42.96875,-32.2265625,40.0390625,0.0,0
1586284573.6469061,61,1,113.76953125,-50.78125,-23.92578125,42.96875,0.0,0
1586284573.6508124,61,1,-16.6015625,-48.33984375,-15.13671875,-18.5546875,0.0,0
1586284573.6547186,61,1,-128.41796875,-37.59765625,-19.53125,-70.80078125,0.0,0
1586284573.658625,61,1,-71.2890625,-42.48046875,-33.69140625,-45.41015625,0.0,0
1586284573.6625311,61,1,75.68359375,-49.8046875,-39.55078125,29.296875,0.0,0
1586284573.6664374,61,1,113.76953125,-44.43359375,-40.0390625,39.0625,0.0,0
1586284573.6703436,61,1,-7.32421875,-36.1328125,-34.66796875,-22.94921875,0.0,0
1586284573.67425,61,1,-131.8359375,-40.52734375,-27.34375,-82.03125,0.0,0
1586284573.6781561,61,1,-101.07421875,-41.9921875,-31.25,-60.05859375,0.0,0
1586284573.6820624,61,1,45.8984375,-37.59765625,-47.36328125,14.6484375,0.0,0
1586284573.6859686,61,1,107.91015625,-41.015625,-53.22265625,36.1328125,0.0,0
1586284573.689875,61,1,1.953125,-37.59765625,-53.22265625,-12.6953125,0.0,0
1586284573.6937811,61,1,-132.32421875,-33.69140625,-45.41015625,-78.61328125,0.0,0
1586284573.6976874,61,1,-126.46484375,-33.203125,-45.41015625,-85.9375,0.0,0
1586284573.7015936,61,1,15.13671875,-35.15625,-52.24609375,-20.01953125,0.0,0
1586284573.7055,61,1,104.4921875,-41.9921875,-47.8515625,19.53125,0.0,0
1586284573.7094061,61,1,18.5546875,-41.015625,-49.31640625,-18.5546875,0.0,0
1586284573.7133124,61,1,-128.41796875,-33.203125,-47.36328125,-84.9609375,0.0,0
1586284573.7172186,61,1,-131.34765625,-43.9453125,-50.29296875,-87.40234375,0.0,0
1586284573.721125,61,1,15.13671875,-44.43359375,-43.9453125,-5.37109375,0.0,0
1586284573.7250311,61,1,124.51171875,-21.484375,-29.78515625,44.43359375,0.0,0
1586284573.7289374,61,1,50.78125,-29.78515625,-20.01953125,2.9296875,0.0,0
1586284573.7328436,61,1,-110.83984375,-38.57421875,-27.83203125,-70.3125,0.0,0
1586284573.73675,61,1,-114.74609375,-33.203125,-35.15625,-70.3125,0.0,0
1586284573.7406561,61,1,18.5546875,-33.203125,-21.484375,-4.39453125,0.0,0
1586284573.7445624,61,1,108.3984375,-32.2265625,-20.5078125,42.48046875,0.0,0
1586284573.7484686,61,1,57.12890625,-33.203125,-13.18359375,15.625,0.0,0
1586284573.752375,61,1,-92.7734375,-37.59765625,-9.27734375,-60.546875,0.0,0
1586284573.7562811,61,1,-148.4375,-41.015625,-29.78515625,-88.37890625,0.0,0
1586284573.7601874,61,1,-27.34375,-33.69140625,-32.2265625,-34.1796875,0.0,0
1586284573.7640936,61,1,100.09765625,-36.62109375,-18.06640625,33.203125,0.0,0
1586284573.768,61,1,64.453125,-43.45703125,-16.6015625,24.90234375,0.0,0
1586284573.7719061,61,1,-88.8671875,-42.96875,-11.23046875,-53.7109375,0.0,0
1586284573.7758124,61,1,-159.66796875,-39.55078125,-0.9765625,-91.796875,0.0,0
1586284573.7797186,61,1,-60.546875,-41.9921875,9.27734375,-41.015625,0.0,0
1586284573.783625,61,1,79.1015625,-45.8984375,14.16015625,21.484375,0.0,0
1586284573.7875311,61,1,74.70703125,-44.43359375,11.23046875,21.484375,0.0,0
1586284573.7914374,61,1,-68.359375,-43.45703125,2.9296875,-52.24609375,0.0,0
1586284573.7953436,61,1,-156.25,-38.0859375,-4.8828125,-96.19140625,0.0,0
1586284573.79925,61,1,-71.2890625,-41.50390625,-4.8828125,-39.0625,0.0,0
1586284573.8031561,61,1,70.3125,-44.921875,-16.6015625,24.4140625,0.0,0
1586284573.8070624,61,1,86.42578125,-45.41015625,-22.94921875,24.90234375,0.0,0
1586284573.8109686,61,1,-44.43359375,-48.33984375,-12.6953125,-32.2265625,0.0,0
1586284573.814875,61,1,-145.01953125,-48.33984375,-8.7890625,-82.51953125,0.0,0
1586284573.8187811,61,1,-77.1484375,-44.921875,-8.7890625,-43.9453125,0.0,0
1586284573.8226874,61,1,73.73046875,-45.41015625,-7.8125,38.0859375,0.0,0
1586284573.8265936,61,1,110.83984375,-53.7109375,-10.7421875,53.22265625,0.0,0
1586284573.8305,61,1,-13.671875,-49.8046875,-5.859375,-15.13671875,0.0,0
1586284573.8344061,61,1,-138.18359375,-42.96875,-13.671875,-75.68359375,0.0,0
1586284573.8383124,61,1,-110.3515625,-44.43359375,-30.2734375,-66.89453125,0.0,0
1586284573.8422186,61,1,33.69140625,-48.828125,-25.87890625,0.0,0.0,0
1586284573.846125,61,1,101.07421875,-45.41015625,-23.92578125,30.76171875,0.0,0
1586284573.8500311,61,1,-3.90625,-37.59765625,-36.62109375,-25.390625,0.0,0
1586284573.8539374,61,1,-134.27734375,-36.1328125,-33.69140625,-87.40234375,0.0,0
1586284573.8578436,61,1,-108.88671875,-33.203125,-36.62109375,-66.89453125,0.0,0
1586284573.86175,61,1,41.015625,-40.52734375,-45.41015625,5.859375,0.0,0
1586284573.8656561,61,1,119.62890625,-49.8046875,-42.48046875,42.48046875,0.0,0
1586284573.8695624,61,1,24.4140625,-39.55078125,-38.57421875,1.46484375,0.0,0
1586284573.8734686,61,1,-125.9765625,-27.83203125,-45.8984375,-63.96484375,0.0,0
1586284573.877375,61,1,-131.34765625,-28.3203125,-47.36328125,-62.5,0.0,0
1586284573.8812811,61,1,7.8125,-46.38671875,-41.9921875,4.39453125,0.0,0
1586284573.8851874,61,1,108.3984375,-45.41015625,-33.203125,50.78125,0.0,0
1586284573.8890936,61,1,42.96875,-37.59765625,-33.69140625,15.13671875,0.0,0
1586284573.893,61,1,-99.609375,-43.45703125,-48.33984375,-58.10546875,0.0,0
1586284573.8969061,61,1,-122.0703125,-43.45703125,-69.82421875,-76.171875,0.0,0
1586284573.9008124,61,1,5.859375,-49.31640625,-67.3828125,-15.13671875,0.0,0
1586284573.9047186,61,1,116.69921875,-44.43359375,-48.828125,48.828125,0.0,0
1586284573.908625,61,1,62.98828125,-33.69140625,-47.8515625,6.34765625,0.0,0
1586284573.9125311,61,1,-89.35546875,-34.1796875,-54.6875,-82.03125,0.0,0
1586284573.9164374,61,1,-140.625,-35.15625,-66.40625,-97.65625,0.0,0
1586284573.9203436,61,1,-32.2265625,-34.66796875,-63.96484375,-35.64453125,0.0,0
1586284573.92425,61,1,98.14453125,-32.71484375,-49.31640625,29.296875,0.0,0
1586284573.9281561,61,1,54.19921875,-37.109375,-50.29296875,19.04296875,0.0,0
1586284573.9320624,61,1,-102.5390625,-42.48046875,-52.24609375,-54.6875,0.0,0
1586284573.9359686,61,1,-164.0625,-49.8046875,-48.828125,-93.26171875,0.0,0
1586284573.939875,61,1,-56.15234375,-49.8046875,-50.78125,-50.78125,0.0,0
1586284573.9437811,61,1,82.51953125,-41.50390625,-47.36328125,19.53125,0.0,0
1586284573.9476874,61,1,67.87109375,-42.96875,-41.015625,11.23046875,0.0,0
1586284573.9515936,61,1,-70.3125,-36.1328125,-38.57421875,-56.15234375,0.0,0
1586284573.9555,61,1,-142.08984375,-25.87890625,-30.76171875,-86.9140625,0.0,0
1586284573.9594061,61,1,-54.6875,-26.3671875,-25.390625,-41.015625,0.0,0
1586284573.9633124,61,1,93.26171875,-24.90234375,-24.4140625,39.0625,0.0,0
1586284573.9672186,61,1,112.3046875,-25.390625,-19.53125,46.38671875,0.0,0
1586284573.971125,61,1,-28.3203125,-36.1328125,-24.4140625,-26.3671875,0.0,0
1586284573.9750311,61,1,-141.6015625,-46.875,-36.62109375,-69.82421875,0.0,0
1586284573.9789374,61,1,-76.66015625,-40.0390625,-32.2265625,-24.4140625,0.0,0
1586284573.9828436,61,1,69.82421875,-37.109375,-30.2734375,44.43359375,0.0,0
1586284573.98675,61,1,97.65625,-38.0859375,-23.92578125,52.734375,0.0,0
1586284573.9906561,61,1,-29.296875,-33.203125,-21.484375,-8.7890625,0.0,0
1586284573.9945624,61,1,-152.83203125,-34.66796875,-30.76171875,-68.84765625,0.0,0
1586284573.9984686,61,1,-104.00390625,-32.2265625,-30.76171875,-45.41015625,0.0,0
1586284574.002375,61,1,46.38671875,-34.1796875,-35.64453125,25.87890625,0.0,0
1586284574.0062811,61,1,99.12109375,-39.55078125,-20.5078125,46.38671875,0.0,0
1586284574.0101874,61,1,-10.7421875,-28.80859375,-21.484375,-15.625,0.0,0
1586284574.0140936,61,1,-141.6015625,-18.06640625,-28.80859375,-87.40234375,0.0,0
1586284574.018,61,1,-113.76953125,-23.92578125,-13.671875,-68.359375,0.0,0
1586284574.0219061,61,1,46.38671875,-26.3671875,-11.23046875,14.16015625,0.0,0
1586284574.0258124,61,1,126.953125,-23.92578125,-20.01953125,48.33984375,0.0,0
1586284574.0297186,61,1,19.53125,-24.90234375,-23.4375,-9.765625,0.0,0
1586284574.033625,61,1,-121.09375,-29.78515625,-28.80859375,-75.1953125,0.0,0
1586284574.0375311,61,1,-117.67578125,-34.66796875,-35.15625,-67.3828125,0.0,0
1586284574.0414374,61,1,16.6015625,-33.69140625,-29.78515625,-4.39453125,0.0,0
1586284574.0453436,61,1,115.72265625,-31.25,-25.390625,46.38671875,0.0,0
1586284574.04925,61,1,41.9921875,-40.0390625,-26.85546875,4.8828125,0.0,0
1586284574.0531561,61,1,-112.79296875,-41.015625,-32.2265625,-64.94140625,0.0,0
1586284574.0570624,61,1,-134.27734375,-36.62109375,-42.48046875,-73.2421875,0.0,0
1586284574.0609686,61,1,-1.46484375,-36.62109375,-36.1328125,-16.6015625,0.0,0
1586284574.064875,61,1,104.4921875,-30.2734375,-24.90234375,43.9453125,0.0,0
1586284574.0687811,61,1,45.41015625,-28.3203125,-28.80859375,20.5078125,0.0,0
1586284574.0726874,61,1,-104.98046875,-29.296875,-44.43359375,-61.5234375,0.0,0
1586284574.0765936,61,1,-146.484375,-28.80859375,-45.41015625,-83.49609375,0.0,0
1586284574.0805,61,1,-23.92578125,-30.76171875,-36.1328125,-15.13671875,0.0,0
1586284574.0844061,61,1,105.95703125,-37.109375,-37.59765625,45.8984375,0.0,0
1586284574.0883124,61,1,67.87109375,-42.96875,-47.8515625,20.5078125,0.0,0
1586284574.0922186,61,1,-93.26171875,-32.71484375,-56.15234375,-56.15234375,0.0,0
1586284574.096125,61,1,-153.3203125,-40.0390625,-63.96484375,-83.0078125,0.0,0
1586284574.1000311,61,1,-40.0390625,-34.66796875,-81.0546875,-19.04296875,0.0,0
1586284574.1039374,61,1,93.26171875,-27.34375,-89.35546875,36.1328125,0.0,0
1586284574.1078436,61,1,75.1953125,-34.1796875,-70.80078125,17.08984375,0.0,0
1586284574.11175,61,1,-63.96484375,-27.83203125,-57.12890625,-49.31640625,0.0,0
1586284574.1156561,61,1,-152.34375,-28.3203125,-57.6171875,-90.33203125,0.0,0
1586284574.1195624,61,1,-62.01171875,-33.203125,-51.7578125,-47.8515625,0.0,0
1586284574.1234686,61,1,104.00390625,-31.25,-47.8515625,27.34375,0.0,0
1586284574.127375,61,1,116.2109375,-27.83203125,-46.875,42.48046875,0.0,0
1586284574.1312811,61,1,-26.3671875,-24.90234375,-36.62109375,-30.76171875,0.0,0
1586284574.1351874,61,1,-131.8359375,-28.3203125,-17.08984375,-83.49609375,0.0,0
1586284574.1390936,61,1,-59.5703125,-37.59765625,-14.16015625,-41.9921875,0.0,0
1586284574.143,61,1,84.47265625,-41.50390625,-24.4140625,27.83203125,0.0,0
1586284574.1469061,61,1,107.421875,-34.1796875,-15.625,38.0859375,0.0,0
1586284574.1508124,61,1,-28.3203125,-30.76171875,-11.71875,-29.78515625,0.0,0
1586284574.1547186,61,1,-148.4375,-37.59765625,-16.11328125,-87.40234375,0.0,0
1586284574.158625,61,1,-103.02734375,-34.1796875,-19.04296875,-61.03515625,0.0,0
1586284574.1625311,61,1,45.8984375,-20.99609375,-21.97265625,14.16015625,0.0,0
1586284574.1664374,61,1,102.05078125,-17.08984375,-26.85546875,41.015625,0.0,0
1586284574.1703436,61,1,-11.71875,-25.87890625,-41.015625,-19.04296875,0.0,0
1586284574.17425,61,1,-137.20703125,-27.83203125,-37.109375,-83.984375,0.0,0
1586284574.1781561,61,1,-104.00390625,-25.87890625,-29.296875,-67.3828125,0.0,0
1586284574.1820624,61,1,41.9921875,-31.25,-35.15625,10.25390625,0.0,0
1586284574.1859686,61,1,109.375,-37.109375,-38.57421875,34.66796875,0.0,0
1586284574.189875,61,1,4.39453125,-46.38671875,-48.828125,-15.13671875,0.0,0
1586284574.1937811,61,1,-140.13671875,-43.9453125,-48.828125,-74.70703125,0.0,0
1586284574.1976874,61,1,-127.44140625,-36.1328125,-27.34375,-67.87109375,0.0,0
1586284574.2015936,61,1,23.92578125,-42.96875,-27.83203125,6.8359375,0.0,0
1586284574.2055,61,1,97.65625,-43.45703125,-33.69140625,51.26953125,0.0,0
1586284574.2094061,61,1,16.6015625,-33.69140625,-26.85546875,8.30078125,0.0,0
1586284574.2133124,61,1,-118.65234375,-33.69140625,-36.1328125,-68.84765625,0.0,0
1586284574.2172186,61,1,-131.34765625,-41.015625,-42.48046875,-75.1953125,0.0,0
1586284574.221125,61,1,7.8125,-41.015625,-39.0625,-14.16015625,0.0,0
1586284574.2250311,61,1,116.2109375,-34.1796875,-39.55078125,29.78515625,0.0,0
1586284574.2289374,61,1,55.6640625,-26.85546875,-32.2265625,4.8828125,0.0,0
1586284574.2328436,61,1,-101.07421875,-30.2734375,-24.4140625,-73.2421875,0.0,0
1586284574.23675,61,1,-145.01953125,-34.66796875,-26.3671875,-98.14453125,0.0,0
1586284574.2406561,61,1,-16.6015625,-32.2265625,-33.203125,-20.5078125,0.0,0
1586284574.2445624,61,1,108.88671875,-30.2734375,-39.55078125,51.26953125,0.0,0
1586284574.2484686,61,1,74.21875,-24.90234375,-39.0625,30.76171875,0.0,0
1586284574.252375,61,1,-77.63671875,-27.83203125,-38.57421875,-50.78125,0.0,0
1586284574.2562811,61,1,-134.765625,-46.38671875,-38.57421875,-80.078125,0.0,0
1586284574.2601874,61,1,-22.4609375,-44.43359375,-42.96875,-13.671875,0.0,0
1586284574.2640936,61,1,105.46875,-28.80859375,-41.50390625,48.33984375,0.0,0
1586284574.268,61,1,86.9140625,-28.3203125,-31.25,26.3671875,0.0,0
1586284574.2719061,61,1,-54.6875,-32.2265625,-39.55078125,-45.8984375,0.0,0
1586284574.2758124,61,1,-138.18359375,-38.0859375,-48.33984375,-83.984375,0.0,0
1586284574.2797186,61,1,-51.26953125,-35.64453125,-45.8984375,-26.3671875,0.0,0
1586284574.283625,61,1,94.7265625,-30.76171875,-41.9921875,42.48046875,0.0,0
1586284574.2875311,61,1,91.30859375,-38.57421875,-47.36328125,29.296875,0.0,0
1586284574.2914374,61,1,-57.12890625,-36.62109375,-52.734375,-39.0625,0.0,0
1586284574.2953436,61,1,-157.71484375,-38.0859375,-56.15234375,-87.40234375,0.0,0
1586284574.29925,61,1,-83.0078125,-40.52734375,-59.5703125,-41.9921875,0.0,0
1586284574.3031561,61,1,66.40625,-35.64453125,-54.19921875,35.64453125,0.0,0
1586284574.3070624,61,1,88.8671875,-39.55078125,-62.5,41.50390625,0.0,0
1586284574.3109686,61,1,-48.33984375,-36.1328125,-62.5,-28.3203125,0.0,0
1586284574.314875,61,1,-153.80859375,-37.109375,-37.59765625,-86.42578125,0.0,0
1586284574.3187811,61,1,-86.42578125,-47.8515625,-38.0859375,-56.15234375,0.0,0
1586284574.3226874,61,1,63.96484375,-39.55078125,-46.38671875,20.99609375,0.0,0
1586284574.3265936,61,1,104.4921875,-29.78515625,-40.0390625,42.96875,0.0,0
1586284574.3305,61,1,-17.08984375,-37.109375,-38.57421875,-24.90234375,0.0,0
1586284574.3344061,61,1,-144.53125,-42.48046875,-49.8046875,-88.37890625,0.0,0
1586284574.3383124,61,1,-108.3984375,-37.59765625,-57.6171875,-73.2421875,0.0,0
1586284574.3422186,61,1,37.109375,-37.109375,-44.921875,-4.39453125,0.0,0
1586284574.346125,61,1,107.421875,-41.9921875,-48.828125,20.01953125,0.0,0
1586284574.3500311,61,1,5.859375,-47.36328125,-51.26953125,-23.4375,0.0,0
1586284574.3539374,61,1,-134.27734375,-44.43359375,-41.9921875,-73.73046875,0.0,0
1586284574.3578436,61,1,-121.09375,-48.828125,-44.43359375,-62.01171875,0.0,0
1586284574.36175,61,1,21.484375,-40.52734375,-38.57421875,12.20703125,0.0,0
1586284574.3656561,61,1,107.91015625,-35.15625,-37.109375,62.01171875,0.0,0
1586284574.3695624,61,1,27.34375,-41.9921875,-42.96875,21.97265625,0.0,0
1586284574.3734686,61,1,-113.28125,-36.1328125,-50.78125,-60.546875,0.0,0
1586284574.377375,61,1,-112.79296875,-36.62109375,-61.03515625,-59.08203125,0.0,0
1586284574.3812811,61,1,30.76171875,-41.015625,-65.4296875,12.20703125,0.0,0
1586284574.3851874,61,1,137.20703125,-36.1328125,-53.22265625,55.17578125,0.0,0
1586284574.3890936,61,1,72.75390625,-40.0390625,-42.48046875,11.23046875,0.0,0
1586284574.393,61,1,-82.03125,-38.0859375,-49.31640625,-67.87109375,0.0,0
1586284574.3969061,61,1,-113.76953125,-34.66796875,-47.36328125,-82.03125,0.0,0
1586284574.4008124,61,1,9.765625,-38.57421875,-51.26953125,-27.83203125,0.0,0
1586284574.4047186,61,1,127.9296875,-38.57421875,-48.33984375,27.83203125,0.0,0
1586284574.408625,61,1,80.56640625,-38.0859375,-39.0625,10.7421875,0.0,0
1586284574.4125311,61,1,-79.1015625,-48.33984375,-49.8046875,-64.94140625,0.0,0
1586284574.4164374,61,1,-133.7890625,-55.17578125,-54.6875,-94.23828125,0.0,0
1586284574.4203436,61,1,-11.23046875,-41.015625,-63.4765625,-33.203125,0.0,0
1586284574.42425,61,1,114.2578125,-37.109375,-66.89453125,43.45703125,0.0,0
1586284574.4281561,61,1,82.03125,-38.57421875,-56.640625,27.83203125,0.0,0
1586284574.4320624,61,1,-73.73046875,-37.109375,-51.26953125,-53.7109375,0.0,0
1586284574.4359686,61,1,-151.3671875,-41.015625,-47.8515625,-77.1484375,0.0,0
1586284574.439875,61,1,-43.45703125,-39.0625,-29.296875,-20.01953125,0.0,0
1586284574.4437811,61,1,82.03125,-41.9921875,-25.87890625,46.38671875,0.0,0
1586284574.4476874,61,1,72.75390625,-40.52734375,-36.62109375,35.15625,0.0,0
1586284574.4515936,61,1,-44.921875,-33.69140625,-40.52734375,-38.0859375,0.0,0
1586284574.4555,61,1,-132.8125,-49.31640625,-48.33984375,-81.54296875,0.0,0
1586284574.4594061,61,1,-54.19921875,-54.19921875,-42.96875,-37.59765625,0.0,0
1586284574.4633124,61,1,93.75,-38.57421875,-29.78515625,25.87890625,0.0,0
1586284574.4672186,61,1,105.46875,-37.59765625,-33.69140625,29.78515625,0.0,0
1586284574.471125,61,1,-35.15625,-42.48046875,-37.109375,-37.59765625,0.0,0
1586284574.4750311,61,1,-145.99609375,-47.36328125,-51.26953125,-100.09765625,0.0,0
1586284574.4789374,61,1,-86.9140625,-46.875,-69.82421875,-77.1484375,0.0,0
1586284574.4828436,61,1,61.03515625,-41.015625,-56.15234375,0.9765625,0.0,0
1586284574.48675,61,1,100.5859375,-46.38671875,-42.48046875,30.76171875,0.0,0
1586284574.4906561,61,1,-17.578125,-55.6640625,-44.921875,-27.34375,0.0,0
1586284574.4945624,61,1,-136.23046875,-53.7109375,-44.43359375,-89.84375,0.0,0
1586284574.4984686,61,1,-98.6328125,-45.8984375,-46.875,-66.40625,0.0,0
1586284574.502375,61,1,50.29296875,-42.96875,-51.26953125,23.92578125,0.0,0
1586284574.5062811,61,1,105.46875,-42.48046875,-47.8515625,52.734375,0.0,0
1586284574.5101874,61,1,-2.9296875,-41.9921875,-49.8046875,-12.20703125,0.0,0
1586284574.5140936,61,1,-138.671875,-42.96875,-48.828125,-69.3359375,0.0,0
1586284574.518,61,1,-122.0703125,-51.26953125,-48.33984375,-57.12890625,0.0,0
1586284574.5219061,61,1,18.06640625,-50.29296875,-49.8046875,4.39453125,0.0,0
1586284574.5258124,61,1,93.75,-42.96875,-39.0625,43.45703125,0.0,0
1586284574.5297186,61,1,13.671875,-45.8984375,-38.0859375,0.9765625,0.0,0
1586284574.533625,61,1,-126.953125,-56.640625,-38.0859375,-72.265625,0.0,0
1586284574.5375311,61,1,-128.41796875,-54.6875,-38.57421875,-76.66015625,0.0,0
1586284574.5414374,61,1,9.765625,-44.921875,-41.015625,-10.25390625,0.0,0
1586284574.5453436,61,1,103.02734375,-38.0859375,-34.1796875,35.15625,0.0,0
1586284574.54925,61,1,17.08984375,-37.59765625,-33.69140625,-1.46484375,0.0,0
1586284574.5531561,61,1,-133.7890625,-42.48046875,-41.9921875,-84.9609375,0.0,0
1586284574.5570624,61,1,-160.64453125,-44.43359375,-42.96875,-96.19140625,0.0,0
1586284574.5609686,61,1,-36.62109375,-48.33984375,-41.9921875,-28.80859375,0.0,0
1586284574.564875,61,1,75.1953125,-49.31640625,-38.57421875,18.06640625,0.0,0
1586284574.5687811,61,1,12.6953125,-48.828125,-37.109375,-5.37109375,0.0,0
1586284574.5726874,61,1,-136.23046875,-46.875,-42.96875,-74.21875,0.0,0
1586284574.5765936,61,1,-171.38671875,-52.734375,-45.41015625,-93.26171875,0.0,0
1586284574.5805,61,1,-42.96875,-52.734375,-42.96875,-33.203125,0.0,0
1586284574.5844061,61,1,89.84375,-37.59765625,-41.9921875,36.62109375,0.0,0
1586284574.5883124,61,1,61.03515625,-35.64453125,-45.41015625,16.6015625,0.0,0
1586284574.5922186,61,1,-81.0546875,-36.62109375,-51.7578125,-58.59375,0.0,0
1586284574.596125,61,1,-149.4140625,-37.59765625,-46.875,-80.078125,0.0,0
1586284574.6000311,61,1,-41.50390625,-41.50390625,-46.38671875,-29.78515625,0.0,0
1586284574.6039374,61,1,91.796875,-38.57421875,-51.26953125,39.0625,0.0,0
1586284574.6078436,61,1,62.01171875,-39.55078125,-46.38671875,31.73828125,0.0,0
1586284574.61175,61,1,-78.125,-41.50390625,-34.1796875,-45.8984375,0.0,0
1586284574.6156561,61,1,-159.1796875,-44.921875,-31.73828125,-95.703125,0.0,0
1586284574.6195624,61,1,-75.1953125,-49.31640625,-25.87890625,-53.22265625,0.0,0
1586284574.6234686,61,1,71.2890625,-40.0390625,-22.4609375,28.3203125,0.0,0
1586284574.627375,61,1,76.66015625,-38.0859375,-29.296875,39.0625,0.0,0
1586284574.6312811,61,1,-67.87109375,-41.50390625,-35.15625,-38.0859375,0.0,0
1586284574.6351874,61,1,-171.38671875,-40.0390625,-34.1796875,-92.7734375,0.0,0
1586284574.6390936,61,1,-100.09765625,-37.109375,-21.97265625,-52.24609375,0.0,0
1586284574.643,61,1,50.29296875,-32.2265625,-15.625,18.06640625,0.0,0
1586284574.6469061,61,1,87.890625,-30.76171875,-12.6953125,34.1796875,0.0,0
1586284574.6508124,61,1,-34.66796875,-32.71484375,-16.11328125,-24.90234375,0.0,0
1586284574.6547186,61,1,-149.90234375,-41.50390625,-18.5546875,-78.125,0.0,0
1586284574.658625,61,1,-102.5390625,-40.52734375,-6.34765625,-55.6640625,0.0,0
1586284574.6625311,61,1,44.43359375,-35.15625,-7.8125,19.04296875,0.0,0
1586284574.6664374,61,1,104.98046875,-33.69140625,-12.6953125,49.31640625,0.0,0
1586284574.6703436,61,1,-5.37109375,-27.83203125,-14.6484375,-6.8359375,0.0,0
1586284574.67425,61,1,-139.6484375,-32.71484375,-21.484375,-72.75390625,0.0,0
1586284574.6781561,61,1,-117.67578125,-37.109375,-33.203125,-67.87109375,0.0,0
1586284574.6820624,61,1,19.53125,-30.2734375,-31.73828125,-4.8828125,0.0,0
1586284574.6859686,61,1,90.33203125,-29.78515625,-33.69140625,30.76171875,0.0,0
1586284574.689875,61,1,2.44140625,-44.921875,-32.2265625,-23.4375,0.0,0
1586284574.6937811,61,1,-129.39453125,-41.9921875,-20.5078125,-90.8203125,0.0,0
1586284574.6976874,61,1,-119.62890625,-33.69140625,-10.25390625,-78.61328125,0.0,0
1586284574.7015936,61,1,21.484375,-31.73828125,-10.25390625,-3.90625,0.0,0
1586284574.7055,61,1,115.72265625,-31.25,-13.18359375,39.0625,0.0,0
1586284574.7094061,61,1,38.57421875,-38.0859375,-17.08984375,-7.32421875,0.0,0
1586284574.7133124,61,1,-113.28125,-39.55078125,-12.20703125,-83.0078125,0.0,0
1586284574.7172186,61,1,-135.25390625,-38.0859375,-4.39453125,-92.7734375,0.0,0
1586284574.721125,61,1,-3.90625,-31.25,-17.08984375,-15.13671875,0.0,0
1586284574.7250311,61,1,113.28125,-23.4375,-36.62109375,47.36328125,0.0,0
1586284574.7289374,61,1,56.15234375,-24.4140625,-25.87890625,19.04296875,0.0,0
1586284574.7328436,61,1,-95.703125,-27.34375,-6.8359375,-58.59375,0.0,0
1586284574.73675,61,1,-136.23046875,-33.69140625,-5.37109375,-74.21875,0.0,0
1586284574.7406561,61,1,-17.08984375,-42.96875,-11.71875,-9.765625,0.0,0
1586284574.7445624,61,1,106.93359375,-40.0390625,-21.97265625,45.41015625,0.0,0
1586284574.7484686,61,1,68.359375,-30.2734375,-27.83203125,24.4140625,0.0,0
1586284574.752375,61,1,-88.8671875,-30.2734375,-31.25,-51.26953125,0.0,0
1586284574.7562811,61,1,-154.78515625,-35.64453125,-37.109375,-89.84375,0.0,0
1586284574.7601874,61,1,-54.6875,-41.9921875,-29.78515625,-42.48046875,0.0,0
1586284574.7640936,61,1,77.63671875,-35.64453125,-24.90234375,29.296875,0.0,0
1586284574.768,61,1,72.75390625,-27.34375,-16.11328125,28.80859375,0.0,0
1586284574.7719061,61,1,-62.98828125,-26.3671875,-15.625,-37.59765625,0.0,0
1586284574.7758124,61,1,-145.99609375,-39.55078125,-20.5078125,-86.42578125,0.0,0
1586284574.7797186,61,1,-51.26953125,-42.48046875,-14.6484375,-48.828125,0.0,0
1586284574.783625,61,1,92.28515625,-37.109375,-16.11328125,24.90234375,0.0,0
1586284574.7875311,61,1,93.26171875,-33.203125,-21.484375,37.109375,0.0,0
1586284574.7914374,61,1,-42.96875,-30.2734375,-32.2265625,-22.94921875,0.0,0
1586284574.7953436,61,1,-146.484375,-30.76171875,-39.0625,-80.56640625,0.0,0
1586284574.79925,61,1,-81.0546875,-40.0390625,-43.9453125,-56.640625,0.0,0
1586284574.8031561,61,1,72.75390625,-39.55078125,-38.0859375,25.87890625,0.0,0
1586284574.8070624,61,1,104.00390625,-34.66796875,-31.73828125,44.43359375,0.0,0
1586284574.8109686,61,1,-26.3671875,-35.64453125,-27.83203125,-31.25,0.0,0
1586284574.814875,61,1,-143.5546875,-35.64453125,-39.0625,-89.84375,0.0,0
1586284574.8187811,61,1,-94.23828125,-34.66796875,-50.29296875,-61.03515625,0.0,0
1586284574.8226874,61,1,58.10546875,-31.25,-41.015625,13.671875,0.0,0
1586284574.8265936,61,1,108.3984375,-32.71484375,-33.69140625,40.52734375,0.0,0
1586284574.8305,61,1,-17.578125,-41.9921875,-41.015625,-20.01953125,0.0,0
1586284574.8344061,61,1,-150.390625,-45.8984375,-37.109375,-87.40234375,0.0,0
1586284574.8383124,61,1,-125.48828125,-42.96875,-39.0625,-78.125,0.0,0
1586284574.8422186,61,1,19.53125,-41.9921875,-39.0625,-11.23046875,0.0,0
1586284574.846125,61,1,90.33203125,-40.0390625,-28.80859375,27.34375,0.0,0
1586284574.8500311,61,1,-9.765625,-39.55078125,-26.3671875,-16.11328125,0.0,0
1586284574.8539374,61,1,-155.2734375,-48.33984375,-22.4609375,-79.1015625,0.0,0
1586284574.8578436,61,1,-149.90234375,-51.7578125,-27.34375,-67.87109375,0.0,0
1586284574.86175,61,1,8.30078125,-45.41015625,-30.2734375,11.71875,0.0,0
1586284574.8656561,61,1,92.7734375,-42.96875,-21.484375,55.17578125,0.0,0
1586284574.8695624,61,1,17.08984375,-38.0859375,-11.71875,17.08984375,0.0,0
1586284574.8734686,61,1,-120.1171875,-34.66796875,-6.34765625,-49.8046875,0.0,0
1586284574.877375,61,1,-133.30078125,-37.109375,-4.39453125,-51.7578125,0.0,0
1586284574.8812811,61,1,12.20703125,-36.62109375,-4.39453125,20.99609375,0.0,0
1586284574.8851874,61,1,126.953125,-35.15625,-13.671875,59.08203125,0.0,0
1586284574.8890936,61,1,54.6875,-37.109375,-17.578125,13.18359375,0.0,0
1586284574.893,61,1,-99.12109375,-38.0859375,-18.06640625,-63.4765625,0.0,0
1586284574.8969061,61,1,-135.7421875,-36.1328125,-21.484375,-79.1015625,0.0,0
1586284574.9008124,61,1,-12.6953125,-32.71484375,-22.94921875,-20.99609375,0.0,0
1586284574.9047186,61,1,104.98046875,-32.71484375,-24.4140625,28.3203125,0.0,0
1586284574.908625,61,1,57.12890625,-34.1796875,-36.62109375,-0.48828125,0.0,0
1586284574.9125311,61,1,-92.7734375,-33.203125,-47.8515625,-71.77734375,0.0,0
1586284574.9164374,61,1,-150.390625,-27.34375,-52.734375,-102.05078125,0.0,0
1586284574.9203436,61,1,-36.62109375,-17.08984375,-48.33984375,-45.41015625,0.0,0
1586284574.92425,61,1,94.7265625,-20.5078125,-38.0859375,30.76171875,0.0,0
1586284574.9281561,61,1,72.75390625,-28.3203125,-36.1328125,16.6015625,0.0,0
1586284574.9320624,61,1,-70.3125,-29.78515625,-38.57421875,-63.4765625,0.0,0
1586284574.9359686,61,1,-152.83203125,-34.66796875,-40.52734375,-101.07421875,0.0,0
1586284574.939875,61,1,-63.96484375,-37.59765625,-38.57421875,-52.734375,0.0,0
1586284574.9437811,61,1,76.171875,-35.15625,-33.203125,24.4140625,0.0,0
1586284574.9476874,61,1,74.70703125,-33.69140625,-25.87890625,31.73828125,0.0,0
1586284574.9515936,61,1,-65.91796875,-28.80859375,-25.87890625,-45.8984375,0.0,0
1586284574.9555,61,1,-165.52734375,-29.296875,-32.71484375,-104.98046875,0.0,0
1586284574.9594061,61,1,-104.98046875,-35.64453125,-33.203125,-62.98828125,0.0,0
1586284574.9633124,61,1,62.5,-31.25,-29.296875,16.11328125,0.0,0
1586284574.9672186,61,1,109.86328125,-26.3671875,-20.99609375,36.62109375,0.0,0
1586284574.971125,61,1,-30.2734375,-36.62109375,-14.16015625,-20.01953125,0.0,0
1586284574.9750311,61,1,-152.34375,-41.9921875,-5.859375,-86.42578125,0.0,0
1586284574.9789374,61,1,-91.30859375,-42.96875,-20.5078125,-60.05859375,0.0,0
1586284574.9828436,61,1,59.08203125,-39.0625,-22.4609375,29.78515625,0.0,0
1586284574.98675,61,1,96.19140625,-33.69140625,-18.06640625,46.38671875,0.0,0
1586284574.9906561,61,1,-21.97265625,-33.203125,-35.64453125,-23.92578125,0.0,0
1586284574.9945624,61,1,-147.94921875,-34.66796875,-33.203125,-86.42578125,0.0,0
1586284574.9984686,61,1,-113.28125,-37.59765625,-19.04296875,-63.4765625,0.0,0
1586284575.002375,61,1,45.41015625,-32.2265625,-25.87890625,8.30078125,0.0,0
1586284575.0062811,61,1,114.2578125,-31.25,-35.64453125,33.203125,0.0,0
1586284575.0101874,61,1,8.30078125,-33.69140625,-32.2265625,-14.6484375,0.0,0
1586284575.0140936,61,1,-125.0,-35.15625,-26.85546875,-69.82421875,0.0,0
1586284575.018,61,1,-113.28125,-32.71484375,-32.2265625,-69.82421875,0.0,0
1586284575.0219061,61,1,35.15625,-32.71484375,-51.7578125,1.46484375,0.0,0
1586284575.0258124,61,1,124.0234375,-35.64453125,-55.6640625,39.55078125,0.0,0
1586284575.0297186,61,1,30.2734375,-38.0859375,-42.48046875,-13.671875,0.0,0
1586284575.033625,61,1,-119.62890625,-37.109375,-29.78515625,-82.03125,0.0,0
1586284575.0375311,61,1,-128.41796875,-28.3203125,-23.4375,-83.0078125,0.0,0
1586284575.0414374,61,1,6.34765625,-27.34375,-20.01953125,-7.32421875,0.0,0
1586284575.0453436,61,1,97.16796875,-32.71484375,-22.94921875,44.921875,0.0,0
1586284575.04925,61,1,31.73828125,-36.1328125,-25.390625,7.8125,0.0,0
1586284575.0531561,61,1,-108.3984375,-33.69140625,-23.92578125,-75.1953125,0.0,0
1586284575.0570624,61,1,-148.4375,-29.78515625,-31.25,-88.37890625,0.0,0
1586284575.0609686,61,1,-26.3671875,-28.80859375,-43.9453125,-19.53125,0.0,0
1586284575.064875,61,1,100.5859375,-23.92578125,-25.87890625,34.66796875,0.0,0
1586284575.0687811,61,1,62.01171875,-22.4609375,-8.30078125,16.11328125,0.0,0
1586284575.0726874,61,1,-94.23828125,-28.3203125,-16.6015625,-57.6171875,0.0,0
1586284575.0765936,61,1,-153.3203125,-30.76171875,-21.97265625,-93.26171875,0.0,0
1586284575.0805,61,1,-42.48046875,-33.69140625,-19.04296875,-43.45703125,0.0,0
1586284575.0844061,61,1,83.49609375,-35.15625,-22.94921875,31.73828125,0.0,0
1586284575.0883124,61,1,58.10546875,-35.15625,-27.83203125,23.4375,0.0,0
1586284575.0922186,61,1,-90.33203125,-45.41015625,-18.06640625,-58.59375,0.0,0
1586284575.096125,61,1,-164.0625,-41.50390625,-20.99609375,-87.890625,0.0,0
1586284575.1000311,61,1,-68.359375,-40.52734375,-37.59765625,-21.97265625,0.0,0
1586284575.1039374,61,1,79.1015625,-39.55078125,-35.64453125,51.26953125,0.0,0
1586284575.1078436,61,1,93.75,-26.3671875,-27.83203125,33.69140625,0.0,0
1586284575.11175,61,1,-51.7578125,-28.80859375,-22.94921875,-41.50390625,0.0,0
1586284575.1156561,61,1,-144.53125,-31.73828125,-15.13671875,-78.61328125,0.0,0
1586284575.1195624,61,1,-61.5234375,-24.90234375,-12.6953125,-37.109375,0.0,0
1586284575.1234686,61,1,72.75390625,-23.4375,-27.34375,33.203125,0.0,0
1586284575.127375,61,1,114.2578125,-33.203125,-21.484375,38.0859375,0.0,0
1586284575.1312811,61,1,-11.23046875,-37.59765625,-17.08984375,-30.76171875,0.0,0
1586284575.1351874,61,1,-132.8125,-32.71484375,-14.6484375,-86.9140625,0.0,0
1586284575.1390936,61,1,-78.61328125,-26.85546875,-7.8125,-60.546875,0.0,0
1586284575.143,61,1,70.80078125,-18.06640625,-15.625,18.06640625,0.0,0
1586284575.1469061,61,1,109.86328125,-19.53125,-29.78515625,41.015625,0.0,0
1586284575.1508124,61,1,-15.625,-25.87890625,-29.78515625,-23.92578125,0.0,0
1586284575.1547186,61,1,-137.6953125,-23.4375,-38.0859375,-90.8203125,0.0,0
1586284575.158625,61,1,-103.515625,-27.83203125,-47.8515625,-66.40625,0.0,0
1586284575.1625311,61,1,48.828125,-30.76171875,-23.4375,17.08984375,0.0,0
1586284575.1664374,61,1,120.60546875,-27.83203125,-29.296875,49.31640625,0.0,0
1586284575.1703436,61,1,15.625,-36.62109375,-44.921875,-2.44140625,0.0,0
1586284575.17425,61,1,-123.046875,-41.015625,-40.0390625,-72.75390625,0.0,0
1586284575.1781561,61,1,-109.375,-31.25,-28.3203125,-59.08203125,0.0,0
1586284575.1820624,61,1,28.80859375,-33.203125,-30.76171875,11.23046875,0.0,0
1586284575.1859686,61,1,113.76953125,-34.1796875,-35.15625,48.33984375,0.0,0
1586284575.189875,61,1,25.390625,-34.1796875,-37.109375,5.37109375,0.0,0
1586284575.1937811,61,1,-129.8828125,-34.1796875,-38.0859375,-71.2890625,0.0,0
1586284575.1976874,61,1,-127.9296875,-36.62109375,-45.8984375,-77.1484375,0.0,0
1586284575.2015936,61,1,13.671875,-34.1796875,-52.24609375,-5.37109375,0.0,0
1586284575.2055,61,1,106.93359375,-34.1796875,-43.45703125,44.921875,0.0,0
1586284575.2094061,61,1,34.1796875,-46.875,-41.9921875,10.25390625,0.0,0
1586284575.2133124,61,1,-109.86328125,-37.59765625,-51.26953125,-68.84765625,0.0,0
1586284575.2172186,61,1,-132.8125,-27.34375,-61.03515625,-84.47265625,0.0,0
1586284575.221125,61,1,-5.37109375,-26.85546875,-61.5234375,-13.671875,0.0,0
1586284575.2250311,61,1,111.81640625,-23.92578125,-48.33984375,43.45703125,0.0,0
1586284575.2289374,61,1,62.01171875,-28.80859375,-32.71484375,17.08984375,0.0,0
1586284575.2328436,61,1,-92.28515625,-34.66796875,-24.4140625,-57.6171875,0.0,0
1586284575.23675,61,1,-139.6484375,-36.62109375,-34.66796875,-82.03125,0.0,0
1586284575.2406561,61,1,-26.85546875,-37.59765625,-50.29296875,-21.97265625,0.0,0
1586284575.2445624,61,1,92.28515625,-49.31640625,-42.48046875,31.25,0.0,0
1586284575.2484686,61,1,63.96484375,-46.38671875,-33.203125,5.859375,0.0,0
1586284575.252375,61,1,-88.37890625,-29.78515625,-31.73828125,-55.6640625,0.0,0
1586284575.2562811,61,1,-163.0859375,-33.203125,-39.55078125,-84.9609375,0.0,0
1586284575.2601874,61,1,-54.6875,-31.73828125,-45.41015625,-38.57421875,0.0,0
1586284575.2640936,61,1,86.9140625,-28.80859375,-43.45703125,28.80859375,0.0,0
1586284575.268,61,1,81.0546875,-29.78515625,-33.69140625,31.73828125,0.0,0
1586284575.2719061,61,1,-77.1484375,-27.34375,-34.1796875,-27.83203125,0.0,0
1586284575.2758124,61,1,-160.64453125,-33.69140625,-47.8515625,-75.1953125,0.0,0
1586284575.2797186,61,1,-62.98828125,-35.64453125,-52.734375,-39.0625,0.0,0
1586284575.283625,61,1,89.84375,-27.83203125,-62.5,41.9921875,0.0,0
1586284575.2875311,61,1,105.46875,-22.94921875,-66.89453125,49.8046875,0.0,0
1586284575.2914374,61,1,-37.109375,-22.4609375,-44.921875,-28.3203125,0.0,0
1586284575.2953436,61,1,-140.625,-20.5078125,-25.87890625,-75.1953125,0.0,0
1586284575.29925,61,1,-84.9609375,-22.94921875,-24.4140625,-36.62109375,0.0,0
1586284575.3031561,61,1,69.82421875,-23.4375,-32.2265625,24.90234375,0.0,0
1586284575.3070624,61,1,109.86328125,-30.2734375,-39.55078125,35.15625,0.0,0
1586284575.3109686,61,1,-18.06640625,-35.15625,-22.4609375,-24.4140625,0.0,0
1586284575.314875,61,1,-130.859375,-36.1328125,-12.20703125,-79.58984375,0.0,0
1586284575.3187811,61,1,-99.609375,-33.203125,-27.34375,-63.96484375,0.0,0
1586284575.3226874,61,1,30.2734375,-28.80859375,-28.3203125,7.32421875,0.0,0
1586284575.3265936,61,1,108.3984375,-27.34375,-11.71875,34.1796875,0.0,0
1586284575.3305,61,1,2.9296875,-27.34375,3.41796875,-24.4140625,0.0,0
1586284575.3344061,61,1,-142.578125,-33.69140625,9.27734375,-85.44921875,0.0,0
1586284575.3383124,61,1,-110.83984375,-28.3203125,15.13671875,-67.3828125,0.0,0
1586284575.3422186,61,1,41.50390625,-23.4375,15.13671875,13.18359375,0.0,0
1586284575.346125,61,1,121.58203125,-28.3203125,11.71875,54.19921875,0.0,0
1586284575.3500311,61,1,30.2734375,-25.87890625,6.8359375,4.39453125,0.0,0
1586284575.3539374,61,1,-117.1875,-25.390625,7.32421875,-64.453125,0.0,0
1586284575.3578436,61,1,-123.046875,-33.69140625,19.53125,-69.82421875,0.0,0
1586284575.36175,61,1,17.578125,-38.57421875,11.71875,-6.8359375,0.0,0
1586284575.3656561,61,1,123.53515625,-39.55078125,8.7890625,47.36328125,0.0,0
1586284575.3695624,61,1,47.36328125,-38.0859375,10.7421875,18.5546875,0.0,0
1586284575.3734686,61,1,-108.88671875,-44.921875,16.6015625,-58.59375,0.0,0
1586284575.377375,61,1,-131.8359375,-39.55078125,19.53125,-72.75390625,0.0,0
1586284575.3812811,61,1,7.8125,-31.73828125,9.27734375,-5.37109375,0.0,0
1586284575.3851874,61,1,121.58203125,-33.69140625,11.23046875,46.875,0.0,0
1586284575.3890936,61,1,48.828125,-36.1328125,9.765625,22.4609375,0.0,0
1586284575.393,61,1,-110.3515625,-35.64453125,-2.9296875,-60.05859375,0.0,0
1586284575.3969061,61,1,-148.92578125,-33.69140625,-10.25390625,-90.8203125,0.0,0
1586284575.4008124,61,1,-41.015625,-37.59765625,-14.6484375,-22.94921875,0.0,0
1586284575.4047186,61,1,103.515625,-45.41015625,-15.625,44.43359375,0.0,0
1586284575.408625,61,1,82.03125,-46.875,-7.32421875,15.625,0.0,0
1586284575.4125311,61,1,-72.75390625,-37.109375,-8.7890625,-62.01171875,0.0,0
1586284575.4164374,61,1,-140.625,-29.78515625,-8.7890625,-75.1953125,0.0,0
1586284575.4203436,61,1,-36.62109375,-28.3203125,-3.41796875,-11.71875,0.0,0
1586284575.42425,61,1,103.515625,-28.3203125,-16.11328125,44.43359375,0.0,0
1586284575.4281561,61,1,83.984375,-36.1328125,-30.76171875,21.484375,0.0,0
1586284575.4320624,61,1,-61.5234375,-39.0625,-25.87890625,-54.6875,0.0,0
1586284575.4359686,61,1,-142.578125,-34.1796875,-18.5546875,-89.84375,0.0,0
1586284575.439875,61,1,-56.640625,-38.57421875,-14.6484375,-53.7109375,0.0,0
1586284575.4437811,61,1,91.30859375,-44.921875,-8.30078125,21.97265625,0.0,0
1586284575.4476874,61,1,95.21484375,-38.57421875,-14.16015625,30.2734375,0.0,0
1586284575.4515936,61,1,-39.55078125,-31.73828125,-22.4609375,-38.57421875,0.0,0
1586284575.4555,61,1,-131.8359375,-31.25,-20.5078125,-77.63671875,0.0,0
1586284575.4594061,61,1,-72.265625,-29.296875,-21.97265625,-39.55078125,0.0,0
1586284575.4633124,61,1,69.82421875,-32.2265625,-21.484375,21.97265625,0.0,0
1586284575.4672186,61,1,114.74609375,-30.2734375,-19.53125,22.94921875,0.0,0
1586284575.471125,61,1,-15.13671875,-32.2265625,-13.18359375,-47.36328125,0.0,0
1586284575.4750311,61,1,-145.5078125,-43.9453125,-17.08984375,-101.07421875,0.0,0
1586284575.4789374,61,1,-103.02734375,-48.828125,-25.87890625,-67.3828125,0.0,0
1586284575.4828436,61,1,56.15234375,-50.78125,-29.78515625,0.9765625,0.0,0
1586284575.48675,61,1,115.234375,-46.38671875,-28.80859375,31.25,0.0,0
1586284575.4906561,61,1,4.8828125,-35.64453125,-11.71875,-18.06640625,0.0,0
1586284575.4945624,61,1,-122.0703125,-32.71484375,-9.27734375,-91.796875,0.0,0
1586284575.4984686,61,1,-91.30859375,-34.66796875,-12.6953125,-74.70703125,0.0,0
1586284575.502375,61,1,59.08203125,-31.25,-5.37109375,13.18359375,0.0,0
1586284575.5062811,61,1,130.37109375,-32.71484375,-0.9765625,52.734375,0.0,0
1586284575.5101874,61,1,29.78515625,-41.015625,-6.34765625,-1.953125,0.0,0
1586284575.5140936,61,1,-116.2109375,-48.33984375,-5.859375,-75.1953125,0.0,0
1586284575.518,61,1,-133.7890625,-46.875,-13.18359375,-69.3359375,0.0,0
1586284575.5219061,61,1,19.04296875,-40.0390625,-17.08984375,6.34765625,0.0,0
1586284575.5258124,61,1,133.7890625,-37.109375,-2.44140625,42.48046875,0.0,0
1586284575.5297186,61,1,49.8046875,-33.203125,3.41796875,-3.90625,0.0,0
1586284575.533625,61,1,-113.28125,-38.57421875,-6.8359375,-70.80078125,0.0,0
1586284575.5375311,61,1,-133.30078125,-41.015625,-8.30078125,-73.73046875,0.0,0
1586284575.5414374,61,1,5.859375,-37.59765625,-3.41796875,-11.23046875,0.0,0
1586284575.5453436,61,1,113.28125,-35.15625,-10.25390625,38.57421875,0.0,0
1586284575.54925,61,1,48.33984375,-39.55078125,-16.6015625,10.25390625,0.0,0
1586284575.5531561,61,1,-103.515625,-37.59765625,-17.578125,-62.01171875,0.0,0
1586284575.5570624,61,1,-138.18359375,-34.66796875,-13.671875,-83.0078125,0.0,0
1586284575.5609686,61,1,-20.99609375,-33.203125,-16.6015625,-21.484375,0.0,0
1586284575.564875,61,1,93.75,-30.76171875,-34.1796875,45.41015625,0.0,0
1586284575.5687811,61,1,76.66015625,-29.78515625,-43.45703125,30.2734375,0.0,0
1586284575.5726874,61,1,-60.546875,-29.78515625,-32.2265625,-50.29296875,0.0,0
1586284575.5765936,61,1,-126.46484375,-33.69140625,-17.08984375,-86.42578125,0.0,0
1586284575.5805,61,1,-32.71484375,-33.69140625,-19.53125,-24.90234375,0.0,0
1586284575.5844061,61,1,99.609375,-34.1796875,-13.18359375,41.50390625,0.0,0
1586284575.5883124,61,1,90.33203125,-33.69140625,-10.25390625,17.08984375,0.0,0
1586284575.5922186,61,1,-59.08203125,-39.0625,-22.94921875,-53.7109375,0.0,0
1586284575.596125,61,1,-149.90234375,-45.41015625,-31.25,-92.7734375,0.0,0
1586284575.6000311,61,1,-63.4765625,-41.9921875,-34.66796875,-53.22265625,0.0,0
1586284575.6039374,61,1,82.03125,-34.66796875,-41.9921875,21.97265625,0.0,0
1586284575.6078436,61,1,84.9609375,-26.85546875,-42.48046875,24.90234375,0.0,0
1586284575.61175,61,1,-62.5,-28.3203125,-34.66796875,-55.17578125,0.0,0
1586284575.6156561,61,1,-162.59765625,-31.73828125,-34.66796875,-98.6328125,0.0,0
1586284575.6195624,61,1,-79.58984375,-35.15625,-36.1328125,-53.7109375,0.0,0
1586284575.6234686,61,1,81.54296875,-35.64453125,-34.66796875,20.5078125,0.0,0
1586284575.627375,61,1,98.6328125,-36.62109375,-39.0625,28.80859375,0.0,0
1586284575.6312811,61,1,-27.34375,-41.9921875,-38.57421875,-38.57421875,0.0,0
1586284575.6351874,61,1,-123.046875,-34.66796875,-33.203125,-91.30859375,0.0,0
1586284575.6390936,61,1,-69.82421875,-27.83203125,-29.78515625,-61.03515625,0.0,0
1586284575.643,61,1,82.51953125,-21.484375,-27.83203125,21.97265625,0.0,0
1586284575.6469061,61,1,132.8125,-15.13671875,-37.109375,48.828125,0.0,0
1586284575.6508124,61,1,7.32421875,-16.11328125,-29.296875,-18.5546875,0.0,0
1586284575.6547186,61,1,-125.48828125,-20.5078125,-16.6015625,-84.9609375,0.0,0
1586284575.658625,61,1,-94.23828125,-26.3671875,-30.76171875,-74.21875,0.0,0
1586284575.6625311,61,1,37.109375,-38.0859375,-39.55078125,-0.9765625,0.0,0
1586284575.6664374,61,1,104.00390625,-37.59765625,-38.0859375,34.1796875,0.0,0
1586284575.6703436,61,1,-1.46484375,-31.25,-41.015625,-11.71875,0.0,0
1586284575.67425,61,1,-154.296875,-40.0390625,-35.15625,-74.70703125,0.0,0
1586284575.6781561,61,1,-138.18359375,-41.50390625,-35.64453125,-80.56640625,0.0,0
1586284575.6820624,61,1,13.18359375,-40.52734375,-29.296875,0.48828125,0.0,0
1586284575.6859686,61,1,95.21484375,-40.52734375,-12.6953125,47.8515625,0.0,0
1586284575.689875,62,1,26.85546875,-37.109375,-15.13671875,-8.30078125,0.0,0
1586284575.6937811,62,1,-112.3046875,-36.62109375,-23.4375,-73.2421875,0.0,0
1586284575.6976874,62,1,-122.0703125,-47.36328125,-27.34375,-65.91796875,0.0,0
1586284575.7015936,62,1,15.625,-43.9453125,-38.0859375,-3.90625,0.0,0
1586284575.7055,62,1,119.140625,-31.25,-43.9453125,47.8515625,0.0,0
1586284575.7094061,62,1,51.7578125,-28.80859375,-31.73828125,20.01953125,0.0,0
1586284575.7133124,62,1,-107.421875,-34.1796875,-20.5078125,-58.59375,0.0,0
1586284575.7172186,62,1,-139.6484375,-37.109375,-25.87890625,-70.3125,0.0,0
1586284575.721125,62,1,-8.7890625,-35.64453125,-22.94921875,-6.8359375,0.0,0
1586284575.7250311,62,1,115.234375,-31.73828125,-27.34375,41.015625,0.0,0
1586284575.7289374,62,1,54.19921875,-29.78515625,-33.69140625,14.6484375,0.0,0
1586284575.7328436,62,1,-103.02734375,-40.52734375,-26.85546875,-61.03515625,0.0,0
1586284575.73675,62,1,-146.484375,-38.0859375,-25.390625,-87.40234375,0.0,0
1586284575.7406561,62,1,-22.94921875,-38.57421875,-31.73828125,-30.2734375,0.0,0
1586284575.7445624,62,1,110.83984375,-48.828125,-39.0625,37.109375,0.0,0
1586284575.7484686,62,1,79.58984375,-44.921875,-41.015625,22.94921875,0.0,0
1586284575.752375,62,1,-72.265625,-36.62109375,-41.50390625,-55.17578125,0.0,0
1586284575.7562811,62,1,-156.73828125,-32.2265625,-44.43359375,-91.30859375,0.0,0
1586284575.7601874,62,1,-62.5,-35.15625,-41.015625,-39.0625,0.0,0
1586284575.7640936,62,1,83.0078125,-35.64453125,-26.85546875,37.59765625,0.0,0
1586284575.768,62,1,69.3359375,-32.2265625,-26.85546875,20.01953125,0.0,0
1586284575.7719061,62,1,-83.0078125,-36.1328125,-40.0390625,-66.40625,0.0,0
1586284575.7758124,62,1,-182.6171875,-38.57421875,-37.59765625,-105.95703125,0.0,0
1586284575.7797186,62,1,-115.234375,-41.50390625,-27.83203125,-50.78125,0.0,0
1586284575.783625,62,1,59.5703125,-34.66796875,-28.80859375,35.15625,0.0,0
1586284575.7875311,62,1,86.9140625,-29.78515625,-37.109375,46.38671875,0.0,0
1586284575.7914374,62,1,-48.828125,-27.34375,-27.83203125,-25.390625,0.0,0
1586284575.7953436,62,1,-151.85546875,-22.94921875,-21.97265625,-83.49609375,0.0,0
1586284575.79925,62,1,-90.33203125,-24.90234375,-27.34375,-46.875,0.0,0
1586284575.8031561,62,1,72.75390625,-32.71484375,-28.3203125,36.1328125,0.0,0
1586284575.8070624,62,1,119.62890625,-37.59765625,-31.25,56.640625,0.0,0
1586284575.8109686,62,1,-3.41796875,-33.69140625,-30.2734375,2.44140625,0.0,0
1586284575.814875,62,1,-126.46484375,-35.64453125,-35.64453125,-60.05859375,0.0,0
1586284575.8187811,62,1,-82.03125,-27.83203125,-35.15625,-43.45703125,0.0,0
1586284575.8226874,62,1,63.4765625,-21.97265625,-30.76171875,33.69140625,0.0,0
1586284575.8265936,62,1,120.1171875,-27.83203125,-28.3203125,56.15234375,0.0,0
1586284575.8305,62,1,5.859375,-25.87890625,-19.53125,-7.8125,0.0,0
1586284575.8344061,62,1,-145.5078125,-32.2265625,-20.01953125,-87.40234375,0.0,0
1586284575.8383124,62,1,-114.74609375,-32.71484375,-29.78515625,-83.49609375,0.0,0
1586284575.8422186,62,1,46.875,-25.87890625,-31.73828125,-5.859375,0.0,0
1586284575.846125,62,1,123.53515625,-28.3203125,-40.0390625,30.2734375,0.0,0
1586284575.8500311,62,1,29.78515625,-34.1796875,-37.59765625,-12.20703125,0.0,0
1586284575.8539374,62,1,-116.2109375,-35.15625,-32.71484375,-68.84765625,0.0,0
1586284575.8578436,62,1,-137.6953125,-30.2734375,-34.66796875,-65.91796875,0.0,0
1586284575.86175,62,1,4.39453125,-23.4375,-34.66796875,-7.32421875,0.0,0
1586284575.8656561,62,1,115.234375,-21.97265625,-31.25,33.203125,0.0,0
1586284575.8695624,62,1,35.15625,-29.78515625,-24.4140625,-0.9765625,0.0,0
1586284575.8734686,62,1,-120.60546875,-30.76171875,-16.11328125,-79.1015625,0.0,0
1586284575.877375,62,1,-162.109375,-27.34375,-29.296875,-98.14453125,0.0,0
1586284575.8812811,62,1,-23.92578125,-30.76171875,-33.203125,-34.1796875,0.0,0
1586284575.8851874,62,1,106.93359375,-31.25,-17.578125,28.80859375,0.0,0
1586284575.8890936,62,1,62.5,-31.25,-10.7421875,8.7890625,0.0,0
1586284575.893,62,1,-83.984375,-37.59765625,-11.71875,-66.89453125,0.0,0
1586284575.8969061,62,1,-139.6484375,-37.59765625,-12.20703125,-85.9375,0.0,0
1586284575.9008124,62,1,-29.296875,-38.57421875,-19.04296875,-30.76171875,0.0,0
1586284575.9047186,62,1,94.23828125,-33.69140625,-22.94921875,36.1328125,0.0,0
1586284575.908625,62,1,61.03515625,-24.90234375,-16.11328125,32.71484375,0.0,0
1586284575.9125311,62,1,-88.37890625,-32.71484375,-25.390625,-53.7109375,0.0,0
1586284575.9164374,62,1,-160.64453125,-35.64453125,-39.55078125,-105.46875,0.0,0
1586284575.9203436,62,1,-55.17578125,-34.1796875,-24.90234375,-40.0390625,0.0,0
1586284575.92425,62,1,90.33203125,-43.9453125,-21.484375,45.41015625,0.0,0
1586284575.9281561,62,1,85.9375,-38.0859375,-31.25,43.9453125,0.0,0
1586284575.9320624,62,1,-62.01171875,-24.90234375,-22.94921875,-32.2265625,0.0,0
1586284575.9359686,62,1,-145.5078125,-22.94921875,-32.2265625,-83.49609375,0.0,0
1586284575.939875,62,1,-51.26953125,-22.4609375,-44.43359375,-48.828125,0.0,0
1586284575.9437811,62,1,91.796875,-25.390625,-32.2265625,16.6015625,0.0,0
1586284575.9476874,62,1,89.84375,-25.390625,-32.71484375,18.5546875,0.0,0
1586284575.9515936,62,1,-57.6171875,-25.87890625,-49.31640625,-55.6640625,0.0,0
1586284575.9555,62,1,-169.921875,-30.76171875,-50.29296875,-113.76953125,0.0,0
1586284575.9594061,62,1,-107.421875,-38.0859375,-42.48046875,-69.82421875,0.0,0
1586284575.9633124,62,1,44.43359375,-33.69140625,-47.8515625,9.27734375,0.0,0
1586284575.9672186,62,1,95.703125,-20.5078125,-44.43359375,27.83203125,0.0,0
1586284575.971125,62,1,-19.53125,-19.53125,-41.015625,-22.94921875,0.0,0
1586284575.9750311,62,1,-145.5078125,-25.390625,-43.45703125,-80.078125,0.0,0
1586284575.9789374,62,1,-114.2578125,-30.2734375,-49.31640625,-56.640625,0.0,0
1586284575.9828436,62,1,40.52734375,-30.2734375,-46.875,21.484375,0.0,0
1586284575.98675,62,1,116.69921875,-28.3203125,-25.87890625,45.41015625,0.0,0
1586284575.9906561,62,1,4.39453125,-32.2265625,-14.16015625,-13.18359375,0.0,0
1586284575.9945624,62,1,-134.27734375,-28.80859375,-18.06640625,-81.0546875,0.0,0
1586284575.9984686,62,1,-118.1640625,-23.4375,-20.5078125,-71.77734375,0.0,0
1586284576.002375,62,1,23.4375,-29.296875,-22.4609375,5.37109375,0.0,0
1586284576.0062811,62,1,96.19140625,-36.62109375,-20.99609375,47.8515625,0.0,0
1586284576.0101874,62,1,1.46484375,-28.80859375,-14.6484375,-11.71875,0.0,0
1586284576.0140936,62,1,-142.578125,-24.4140625,-13.18359375,-80.078125,0.0,0
1586284576.018,62,1,-150.87890625,-33.203125,-6.34765625,-74.70703125,0.0,0
1586284576.0219061,62,1,15.625,-35.15625,-4.8828125,-8.7890625,0.0,0
1586284576.0258124,62,1,123.046875,-30.76171875,-6.8359375,39.55078125,0.0,0
1586284576.0297186,62,1,28.3203125,-34.1796875,-0.9765625,4.8828125,0.0,0
1586284576.033625,62,1,-112.79296875,-44.921875,-5.859375,-69.3359375,0.0,0
1586284576.0375311,62,1,-125.0,-40.52734375,-12.20703125,-76.171875,0.0,0
1586284576.0414374,62,1,5.37109375,-35.15625,-17.578125,-8.30078125,0.0,0
1586284576.0453436,62,1,111.81640625,-41.50390625,-27.34375,40.52734375,0.0,0
1586284576.04925,62,1,51.26953125,-43.9453125,-33.69140625,20.99609375,0.0,0
1586284576.0531561,62,1,-108.88671875,-40.52734375,-31.73828125,-56.640625,0.0,0
1586284576.0570624,62,1,-157.71484375,-38.0859375,-27.83203125,-92.7734375,0.0,0
1586284576.0609686,62,1,-38.57421875,-32.71484375,-24.4140625,-38.0859375,0.0,0
1586284576.064875,62,1,86.42578125,-27.34375,-26.3671875,25.87890625,0.0,0
1586284576.0687811,62,1,42.96875,-35.64453125,-22.4609375,1.46484375,0.0,0
1586284576.0726874,62,1,-109.375,-35.15625,-6.8359375,-66.89453125,0.0,0
1586284576.0765936,62,1,-171.38671875,-40.0390625,-2.9296875,-82.03125,0.0,0
1586284576.0805,62,1,-56.15234375,-41.015625,-17.08984375,-25.390625,0.0,0
1586284576.0844061,62,1,78.125,-24.90234375,-23.4375,44.43359375,0.0,0
1586284576.0883124,62,1,59.08203125,-33.69140625,-17.08984375,23.4375,0.0,0
1586284576.0922186,62,1,-53.22265625,-43.45703125,-20.01953125,-62.01171875,0.0,0
1586284576.096125,62,1,-130.859375,-34.66796875,-24.90234375,-96.19140625,0.0,0
1586284576.1000311,62,1,-49.8046875,-35.15625,-24.90234375,-52.734375,0.0,0
1586284576.1039374,62,1,105.95703125,-39.0625,-23.4375,18.06640625,0.0,0
1586284576.1078436,62,1,117.1875,-42.48046875,-21.97265625,23.4375,0.0,0
1586284576.11175,62,1,-22.4609375,-53.22265625,-24.90234375,-48.33984375,0.0,0
1586284576.1156561,62,1,-130.859375,-48.828125,-27.34375,-106.93359375,0.0,0
1586284576.1195624,62,1,-73.73046875,-40.52734375,-20.5078125,-67.87109375,0.0,0
1586284576.1234686,62,1,73.73046875,-38.0859375,-19.04296875,25.87890625,0.0,0
1586284576.127375,62,1,104.98046875,-32.2265625,-16.11328125,45.41015625,0.0,0
1586284576.1312811,62,1,-34.66796875,-29.296875,-23.92578125,-22.4609375,0.0,0
1586284576.1351874,62,1,-155.76171875,-34.1796875,-35.15625,-79.58984375,0.0,0
1586284576.1390936,62,1,-105.46875,-41.50390625,-22.94921875,-51.26953125,0.0,0
1586284576.143,62,1,34.66796875,-41.9921875,-23.4375,21.97265625,0.0,0
1586284576.1469061,62,1,78.61328125,-47.36328125,-22.4609375,50.29296875,0.0,0
1586284576.1508124,62,1,-9.765625,-45.41015625,-13.671875,-7.32421875,0.0,0
1586284576.1547186,62,1,-132.8125,-44.921875,-31.25,-76.171875,0.0,0
1586284576.158625,62,1,-112.79296875,-51.7578125,-43.45703125,-59.5703125,0.0,0
1586284576.1625311,62,1,40.52734375,-43.45703125,-33.203125,19.53125,0.0,0
1586284576.1664374,62,1,118.1640625,-35.15625,-20.99609375,46.875,0.0,0
1586284576.1703436,62,1,20.01953125,-44.921875,-18.06640625,-2.44140625,0.0,0
1586284576.17425,62,1,-128.41796875,-47.36328125,-16.6015625,-76.66015625,0.0,0
1586284576.1781561,62,1,-124.0234375,-40.0390625,-22.4609375,-83.49609375,0.0,0
1586284576.1820624,62,1,29.296875,-32.2265625,-16.6015625,-12.6953125,0.0,0
1586284576.1859686,62,1,131.34765625,-26.85546875,-16.11328125,30.76171875,0.0,0
1586284576.189875,62,1,50.78125,-27.83203125,-21.97265625,-18.06640625,0.0,0
1586284576.1937811,62,1,-107.91015625,-31.25,-8.7890625,-92.7734375,0.0,0
1586284576.1976874,62,1,-127.9296875,-32.2265625,-3.41796875,-96.19140625,0.0,0
1586284576.2015936,62,1,7.8125,-39.0625,-18.5546875,-35.15625,0.0,0
1586284576.2055,62,1,117.1875,-42.48046875,-10.7421875,19.53125,0.0,0
1586284576.2094061,62,1,45.41015625,-33.69140625,6.34765625,-2.9296875,0.0,0
1586284576.2133124,62,1,-105.95703125,-39.0625,15.625,-72.75390625,0.0,0
1586284576.2172186,62,1,-131.34765625,-48.33984375,24.4140625,-83.49609375,0.0,0
1586284576.221125,62,1,-11.23046875,-47.36328125,20.01953125,-20.5078125,0.0,0
1586284576.2250311,62,1,108.3984375,-45.41015625,28.3203125,45.41015625,0.0,0
1586284576.2289374,62,1,62.98828125,-44.43359375,38.0859375,49.31640625,0.0,0
1586284576.2328436,62,1,-99.609375,-42.48046875,30.2734375,-35.64453125,0.0,0
1586284576.23675,62,1,-175.29296875,-53.22265625,19.53125,-75.1953125,0.0,0
1586284576.2406561,62,1,-63.96484375,-57.6171875,10.25390625,0.0,0.0,0
1586284576.2445624,62,1,80.078125,-45.8984375,8.7890625,70.3125,0.0,0
1586284576.2484686,62,1,71.77734375,-40.0390625,15.13671875,54.6875,0.0,0
1586284576.252375,62,1,-68.84765625,-33.69140625,16.11328125,-27.83203125,0.0,0
1586284576.2562811,62,1,-152.34375,-31.25,4.39453125,-71.77734375,0.0,0
1586284576.2601874,62,1,-55.17578125,-32.2265625,-2.9296875,-29.78515625,0.0,0
1586284576.2640936,62,1,91.30859375,-29.296875,3.41796875,33.203125,0.0,0
1586284576.268,62,1,90.33203125,-30.76171875,1.953125,30.2734375,0.0,0
1586284576.2719061,62,1,-55.17578125,-31.73828125,-15.13671875,-44.43359375,0.0,0
1586284576.2758124,62,1,-149.4140625,-22.94921875,-24.4140625,-103.02734375,0.0,0
1586284576.2797186,62,1,-86.42578125,-33.69140625,-36.62109375,-69.3359375,0.0,0
1586284576.283625,62,1,69.3359375,-40.52734375,-45.41015625,13.671875,0.0,0
1586284576.2875311,62,1,110.83984375,-30.2734375,-24.90234375,28.3203125,0.0,0
1586284576.2914374,62,1,-31.25,-34.66796875,-19.53125,-46.38671875,0.0,0
1586284576.2953436,62,1,-154.78515625,-40.0390625,-32.2265625,-105.95703125,0.0,0
1586284576.29925,62,1,-102.5390625,-35.64453125,-37.59765625,-74.21875,0.0,0
1586284576.3031561,62,1,58.10546875,-41.015625,-29.296875,8.7890625,0.0,0
1586284576.3070624,62,1,114.74609375,-37.109375,-20.99609375,39.55078125,0.0,0
1586284576.3109686,62,1,-15.625,-27.83203125,-21.97265625,-17.08984375,0.0,0
1586284576.314875,62,1,-136.71875,-28.3203125,-19.04296875,-75.1953125,0.0,0
1586284576.3187811,62,1,-98.14453125,-26.85546875,-12.20703125,-52.734375,0.0,0
1586284576.3226874,62,1,31.73828125,-26.85546875,-13.18359375,20.99609375,0.0,0
1586284576.3265936,62,1,117.67578125,-24.4140625,-9.765625,56.15234375,0.0,0
1586284576.3305,62,1,24.90234375,-17.578125,-9.27734375,7.8125,0.0,0
1586284576.3344061,62,1,-125.48828125,-24.4140625,-4.8828125,-62.5,0.0,0
1586284576.3383124,62,1,-119.140625,-26.3671875,-1.46484375,-68.359375,0.0,0
1586284576.3422186,62,1,22.94921875,-20.99609375,-4.39453125,6.34765625,0.0,0
1586284576.346125,62,1,105.95703125,-24.4140625,-9.27734375,55.6640625,0.0,0
1586284576.3500311,62,1,20.5078125,-29.78515625,-10.7421875,5.37109375,0.0,0
1586284576.3539374,62,1,-120.1171875,-32.2265625,-3.41796875,-55.17578125,0.0,0
1586284576.3578436,62,1,-135.25390625,-39.0625,7.8125,-58.10546875,0.0,0
1586284576.36175,62,1,-1.46484375,-40.52734375,7.32421875,2.44140625,0.0,0
1586284576.3656561,62,1,103.02734375,-40.0390625,4.39453125,62.01171875,0.0,0
1586284576.3695624,62,1,35.15625,-43.45703125,0.48828125,18.5546875,0.0,0
1586284576.3734686,62,1,-96.19140625,-37.59765625,-14.16015625,-61.5234375,0.0,0
1586284576.377375,62,1,-127.44140625,-37.109375,-20.5078125,-64.94140625,0.0,0
1586284576.3812811,62,1,-9.27734375,-36.1328125,-18.06640625,-2.9296875,0.0,0
1586284576.3851874,62,1,110.3515625,-26.85546875,-7.32421875,42.48046875,0.0,0
1586284576.3890936,62,1,75.68359375,-24.90234375,-1.953125,11.23046875,0.0,0
1586284576.393,62,1,-70.3125,-23.4375,-5.37109375,-62.98828125,0.0,0
1586284576.3969061,62,1,-133.30078125,-16.6015625,-16.11328125,-86.9140625,0.0,0
1586284576.4008124,62,1,-19.04296875,-22.94921875,-18.06640625,-45.41015625,0.0,0
1586284576.4047186,62,1,110.3515625,-28.80859375,-16.6015625,21.97265625,0.0,0
1586284576.408625,62,1,81.0546875,-28.80859375,-32.71484375,20.5078125,0.0,0
1586284576.4125311,62,1,-59.5703125,-38.0859375,-32.71484375,-54.6875,0.0,0
1586284576.4164374,62,1,-145.5078125,-35.64453125,-15.625,-89.84375,0.0,0
1586284576.4203436,62,1,-60.05859375,-29.296875,-22.94921875,-53.7109375,0.0,0
1586284576.42425,62,1,92.7734375,-32.2265625,-21.97265625,20.99609375,0.0,0
1586284576.4281561,62,1,84.9609375,-31.73828125,-12.20703125,17.578125,0.0,0
1586284576.4320624,62,1,-70.80078125,-27.34375,-7.32421875,-54.6875,0.0,0
1586284576.4359686,62,1,-143.06640625,-30.2734375,0.0,-93.26171875,0.0,0
1586284576.439875,62,1,-60.546875,-34.66796875,2.9296875,-57.6171875,0.0,0
1586284576.4437811,62,1,73.2421875,-27.83203125,1.953125,20.5078125,0.0,0
1586284576.4476874,62,1,100.09765625,-29.296875,0.0,36.1328125,0.0,0
1586284576.4515936,62,1,-35.15625,-42.48046875,0.48828125,-34.1796875,0.0,0
1586284576.4555,62,1,-153.3203125,-41.9921875,1.953125,-81.54296875,0.0,0
1586284576.4594061,62,1,-96.19140625,-38.0859375,6.34765625,-49.8046875,0.0,0
1586284576.4633124,62,1,49.31640625,-35.15625,7.8125,23.92578125,0.0,0
1586284576.4672186,62,1,112.79296875,-29.78515625,-3.90625,48.828125,0.0,0
1586284576.471125,62,1,0.0,-28.3203125,-13.18359375,-7.8125,0.0,0
1586284576.4750311,62,1,-129.39453125,-25.390625,-14.16015625,-71.2890625,0.0,0
1586284576.4789374,62,1,-100.09765625,-23.92578125,-13.671875,-52.734375,0.0,0
1586284576.4828436,62,1,45.41015625,-22.4609375,-6.34765625,22.94921875,0.0,0
1586284576.48675,62,1,120.60546875,-23.4375,-6.8359375,42.96875,0.0,0
1586284576.4906561,62,1,21.484375,-28.80859375,-5.859375,-0.48828125,0.0,0
1586284576.4945624,62,1,-122.0703125,-40.52734375,1.953125,-63.4765625,0.0,0
1586284576.4984686,62,1,-114.2578125,-45.41015625,10.25390625,-63.96484375,0.0,0
1586284576.502375,62,1,33.69140625,-33.203125,7.32421875,7.8125,0.0,0
1586284576.5062811,62,1,129.39453125,-27.83203125,0.0,45.41015625,0.0,0
1586284576.5101874,62,1,44.43359375,-26.3671875,8.30078125,-0.9765625,0.0,0
1586284576.5140936,62,1,-109.86328125,-30.76171875,7.32421875,-67.3828125,0.0,0
1586284576.518,62,1,-129.39453125,-33.203125,-4.8828125,-85.9375,0.0,0
1586284576.5219061,62,1,7.32421875,-28.80859375,0.48828125,-28.3203125,0.0,0
1586284576.5258124,62,1,108.88671875,-30.2734375,6.8359375,35.64453125,0.0,0
1586284576.5297186,62,1,30.2734375,-25.87890625,7.8125,7.8125,0.0,0
1586284576.533625,62,1,-117.67578125,-28.3203125,5.859375,-68.84765625,0.0,0
1586284576.5375311,62,1,-137.20703125,-35.64453125,1.46484375,-82.03125,0.0,0
1586284576.5414374,62,1,-0.48828125,-28.80859375,-2.44140625,-17.08984375,0.0,0
1586284576.5453436,62,1,118.1640625,-23.4375,6.34765625,43.45703125,0.0,0
1586284576.54925,62,1,78.125,-24.4140625,18.5546875,15.13671875,0.0,0
1586284576.5531561,62,1,-69.82421875,-22.4609375,4.39453125,-59.08203125,0.0,0
1586284576.5570624,62,1,-124.51171875,-23.92578125,-10.25390625,-77.1484375,0.0,0
1586284576.5609686,62,1,-10.7421875,-29.78515625,-9.27734375,-34.66796875,0.0,0
1586284576.564875,62,1,115.234375,-26.3671875,-8.30078125,30.2734375,0.0,0
1586284576.5687811,62,1,79.58984375,-25.390625,-13.671875,23.92578125,0.0,0
1586284576.5726874,62,1,-66.40625,-38.57421875,-14.6484375,-42.48046875,0.0,0
1586284576.5765936,62,1,-134.765625,-41.9921875,-4.39453125,-84.47265625,0.0,0
1586284576.5805,62,1,-32.71484375,-36.62109375,-7.32421875,-49.8046875,0.0,0
1586284576.5844061,62,1,111.81640625,-33.69140625,-13.18359375,23.92578125,0.0,0
1586284576.5883124,62,1,106.93359375,-30.2734375,-8.7890625,28.3203125,0.0,0
1586284576.5922186,62,1,-37.59765625,-27.34375,-1.953125,-36.1328125,0.0,0
1586284576.596125,62,1,-133.7890625,-22.94921875,-12.6953125,-76.66015625,0.0,0
1586284576.6000311,62,1,-59.08203125,-24.4140625,-27.83203125,-38.0859375,0.0,0
1586284576.6039374,62,1,81.0546875,-36.62109375,-26.3671875,32.71484375,0.0,0
1586284576.6078436,62,1,96.6796875,-44.43359375,-41.015625,25.390625,0.0,0
1586284576.61175,62,1,-37.59765625,-36.1328125,-46.38671875,-48.33984375,0.0,0
1586284576.6156561,62,1,-159.1796875,-34.1796875,-28.3203125,-104.00390625,0.0,0
1586284576.6195624,62,1,-92.7734375,-34.66796875,-31.73828125,-75.68359375,0.0,0
1586284576.6234686,62,1,65.4296875,-32.71484375,-41.9921875,2.9296875,0.0,0
1586284576.627375,62,1,106.4453125,-29.78515625,-38.0859375,26.3671875,0.0,0
1586284576.6312811,62,1,-14.16015625,-31.25,-32.71484375,-29.296875,0.0,0
1586284576.6351874,62,1,-154.78515625,-33.203125,-39.55078125,-83.49609375,0.0,0
1586284576.6390936,62,1,-105.46875,-30.2734375,-40.0390625,-61.03515625,0.0,0
1586284576.643,62,1,55.17578125,-33.69140625,-36.62109375,10.7421875,0.0,0
1586284576.6469061,62,1,107.421875,-44.43359375,-34.1796875,39.55078125,0.0,0
1586284576.6508124,62,1,-8.30078125,-42.96875,-41.015625,-16.11328125,0.0,0
1586284576.6547186,62,1,-144.53125,-39.55078125,-60.546875,-84.9609375,0.0,0
1586284576.658625,62,1,-126.953125,-38.57421875,-62.98828125,-81.0546875,0.0,0
1586284576.6625311,62,1,29.78515625,-36.1328125,-59.08203125,0.0,0.0,0
1586284576.6664374,62,1,122.0703125,-36.1328125,-56.15234375,48.828125,0.0,0
1586284576.6703436,62,1,30.2734375,-30.2734375,-54.19921875,0.48828125,0.0,0
1586284576.67425,62,1,-120.1171875,-25.390625,-65.4296875,-74.21875,0.0,0
1586284576.6781561,62,1,-123.53515625,-27.83203125,-58.59375,-82.03125,0.0,0
1586284576.6820624,62,1,23.92578125,-24.4140625,-56.15234375,-9.27734375,0.0,0
1586284576.6859686,62,1,124.51171875,-28.80859375,-65.91796875,47.8515625,0.0,0
1586284576.689875,62,1,47.36328125,-31.25,-52.734375,9.27734375,0.0,0
1586284576.6937811,62,1,-107.91015625,-33.69140625,-43.45703125,-63.4765625,0.0,0
1586284576.6976874,62,1,-137.6953125,-35.15625,-44.43359375,-81.54296875,0.0,0
1586284576.7015936,62,1,-8.7890625,-34.1796875,-42.48046875,-14.6484375,0.0,0
1586284576.7055,62,1,102.5390625,-36.62109375,-39.0625,55.6640625,0.0,0
1586284576.7094061,62,1,52.24609375,-37.109375,-43.9453125,36.62109375,0.0,0
1586284576.7133124,62,1,-102.5390625,-32.2265625,-46.875,-41.015625,0.0,0
1586284576.7172186,62,1,-150.87890625,-32.71484375,-41.9921875,-68.84765625,0.0,0
1586284576.721125,62,1,-27.83203125,-33.69140625,-38.57421875,-8.7890625,0.0,0
1586284576.7250311,62,1,83.49609375,-38.57421875,-49.8046875,45.8984375,0.0,0
1586284576.7289374,62,1,61.03515625,-46.38671875,-53.7109375,25.390625,0.0,0
1586284576.7328436,62,1,-69.3359375,-39.0625,-53.7109375,-48.33984375,0.0,0
1586284576.73675,62,1,-141.11328125,-31.73828125,-57.12890625,-90.8203125,0.0,0
1586284576.7406561,62,1,-44.43359375,-33.203125,-58.10546875,-37.59765625,0.0,0
1586284576.7445624,62,1,96.6796875,-36.1328125,-55.6640625,32.71484375,0.0,0
1586284576.7484686,62,1,87.40234375,-34.1796875,-54.19921875,27.83203125,0.0,0
1586284576.752375,62,1,-67.3828125,-28.80859375,-45.41015625,-42.48046875,0.0,0
1586284576.7562811,62,1,-162.59765625,-36.62109375,-41.9921875,-87.40234375,0.0,0
1586284576.7601874,62,1,-73.73046875,-44.43359375,-48.33984375,-47.36328125,0.0,0
1586284576.7640936,62,1,75.1953125,-36.62109375,-43.9453125,26.3671875,0.0,0
1586284576.768,62,1,87.890625,-31.25,-34.66796875,36.62109375,0.0,0
1586284576.7719061,62,1,-50.29296875,-30.76171875,-34.66796875,-33.69140625,0.0,0
1586284576.7758124,62,1,-159.66796875,-34.66796875,-30.2734375,-92.7734375,0.0,0
1586284576.7797186,62,1,-92.28515625,-40.52734375,-32.2265625,-57.12890625,0.0,0
1586284576.783625,62,1,69.82421875,-37.109375,-44.921875,19.04296875,0.0,0
1586284576.7875311,62,1,105.95703125,-31.73828125,-49.31640625,36.1328125,0.0,0
1586284576.7914374,62,1,-32.2265625,-29.296875,-45.41015625,-26.85546875,0.0,0
1586284576.7953436,62,1,-154.296875,-32.71484375,-39.55078125,-84.9609375,0.0,0
1586284576.79925,62,1,-112.3046875,-37.59765625,-38.0859375,-48.33984375,0.0,0
1586284576.8031561,62,1,38.0859375,-37.109375,-39.0625,12.6953125,0.0,0
1586284576.8070624,62,1,96.19140625,-32.2265625,-44.921875,32.2265625,0.0,0
1586284576.8109686,62,1,-12.20703125,-26.3671875,-39.0625,-19.53125,0.0,0
1586284576.814875,62,1,-144.04296875,-34.1796875,-27.83203125,-92.28515625,0.0,0
1586284576.8187811,62,1,-116.69921875,-36.1328125,-27.34375,-81.0546875,0.0,0
1586284576.8226874,62,1,44.43359375,-33.203125,-22.4609375,-0.48828125,0.0,0
1586284576.8265936,62,1,119.62890625,-37.109375,-20.01953125,36.62109375,0.0,0
1586284576.8305,62,1,15.625,-38.0859375,-23.92578125,-16.11328125,0.0,0
1586284576.8344061,62,1,-129.8828125,-34.1796875,-26.3671875,-81.54296875,0.0,0
1586284576.8383124,62,1,-125.9765625,-31.25,-24.90234375,-80.078125,0.0,0
1586284576.8422186,62,1,21.484375,-33.69140625,-27.34375,-4.39453125,0.0,0
1586284576.846125,62,1,110.3515625,-30.2734375,-25.87890625,49.31640625,0.0,0
1586284576.8500311,62,1,29.296875,-22.94921875,-21.484375,5.37109375,0.0,0
1586284576.8539374,62,1,-132.8125,-29.78515625,-23.92578125,-74.70703125,0.0,0
1586284576.8578436,62,1,-168.45703125,-38.0859375,-27.83203125,-83.984375,0.0,0
1586284576.86175,62,1,-20.99609375,-36.62109375,-24.4140625,-20.01953125,0.0,0
1586284576.8656561,62,1,102.05078125,-34.1796875,-25.390625,39.55078125,0.0,0
1586284576.8695624,62,1,44.43359375,-38.0859375,-20.99609375,16.11328125,0.0,0
1586284576.8734686,62,1,-116.2109375,-49.8046875,-18.5546875,-58.59375,0.0,0
1586284576.877375,62,1,-160.64453125,-47.8515625,-27.83203125,-81.54296875,0.0,0
1586284576.8812811,62,1,-39.0625,-32.2265625,-27.34375,-20.5078125,0.0,0
1586284576.8851874,62,1,94.7265625,-31.73828125,-21.484375,43.45703125,0.0,0
1586284576.8890936,62,1,69.82421875,-34.1796875,-20.5078125,23.4375,0.0,0
1586284576.893,62,1,-89.84375,-28.3203125,-22.94921875,-59.5703125,0.0,0
1586284576.8969061,62,1,-152.83203125,-29.296875,-23.92578125,-98.14453125,0.0,0
1586284576.9008124,62,1,-39.0625,-36.62109375,-27.34375,-44.921875,0.0,0
1586284576.9047186,62,1,102.5390625,-36.62109375,-34.1796875,25.87890625,0.0,0
1586284576.908625,62,1,88.8671875,-34.1796875,-26.85546875,14.16015625,0.0,0
1586284576.9125311,62,1,-66.40625,-40.52734375,-27.83203125,-59.08203125,0.0,0
1586284576.9164374,62,1,-156.25,-45.41015625,-32.71484375,-101.5625,0.0,0
1586284576.9203436,62,1,-63.96484375,-34.66796875,-33.203125,-53.22265625,0.0,0
1586284576.92425,62,1,81.0546875,-31.73828125,-33.69140625,23.92578125,0.0,0
1586284576.9281561,62,1,90.33203125,-36.62109375,-26.3671875,29.296875,0.0,0
1586284576.9320624,62,1,-41.015625,-29.78515625,-26.3671875,-34.66796875,0.0,0
1586284576.9359686,62,1,-150.390625,-29.296875,-36.1328125,-89.84375,0.0,0
1586284576.939875,62,1,-79.58984375,-35.64453125,-35.15625,-58.59375,0.0,0
1586284576.9437811,62,1,78.125,-35.64453125,-24.90234375,20.5078125,0.0,0
1586284576.9476874,62,1,106.4453125,-32.2265625,-19.04296875,32.2265625,0.0,0
1586284576.9515936,62,1,-27.34375,-31.25,-25.390625,-40.0390625,0.0,0
1586284576.9555,62,1,-149.90234375,-36.1328125,-25.87890625,-96.6796875,0.0,0
1586284576.9594061,62,1,-99.12109375,-31.73828125,-18.06640625,-62.01171875,0.0,0
1586284576.9633124,62,1,54.19921875,-28.3203125,-15.13671875,13.18359375,0.0,0
1586284576.9672186,62,1,105.46875,-36.1328125,-19.04296875,33.203125,0.0,0
1586284576.971125,62,1,-12.20703125,-42.96875,-23.4375,-24.4140625,0.0,0
1586284576.9750311,62,1,-150.390625,-42.96875,-22.94921875,-85.44921875,0.0,0
1586284576.9789374,62,1,-126.953125,-41.50390625,-26.85546875,-62.5,0.0,0
1586284576.9828436,62,1,27.34375,-34.66796875,-26.3671875,15.625,0.0,0
1586284576.98675,62,1,108.88671875,-35.15625,-24.4140625,48.828125,0.0,0
1586284576.9906561,62,1,5.37109375,-42.96875,-42.48046875,-9.765625,0.0,0
1586284576.9945624,62,1,-138.671875,-38.0859375,-53.22265625,-80.078125,0.0,0
1586284576.9984686,62,1,-129.8828125,-39.0625,-44.921875,-81.0546875,0.0,0
1586284577.002375,62,1,15.13671875,-40.52734375,-37.109375,-9.27734375,0.0,0
1586284577.0062811,62,1,102.5390625,-35.15625,-31.73828125,43.9453125,0.0,0
1586284577.0101874,62,1,22.4609375,-34.66796875,-30.76171875,0.0,0.0,0
1586284577.0140936,62,1,-114.74609375,-34.66796875,-22.94921875,-65.91796875,0.0,0
1586284577.018,62,1,-131.34765625,-39.0625,-25.87890625,-66.40625,0.0,0
1586284577.0219061,62,1,5.859375,-38.57421875,-28.80859375,1.953125,0.0,0
1586284577.0258124,62,1,116.69921875,-30.2734375,-24.4140625,58.59375,0.0,0
1586284577.0297186,62,1,49.31640625,-26.3671875,-30.2734375,20.5078125,0.0,0
1586284577.033625,62,1,-109.375,-29.296875,-32.71484375,-65.91796875,0.0,0
1586284577.0375311,62,1,-145.99609375,-34.1796875,-27.34375,-81.54296875,0.0,0
1586284577.0414374,62,1,-22.4609375,-36.1328125,-30.76171875,-16.6015625,0.0,0
1586284577.0453436,62,1,101.07421875,-31.25,-30.76171875,39.0625,0.0,0
1586284577.04925,62,1,57.12890625,-29.296875,-29.78515625,17.578125,0.0,0
1586284577.0531561,62,1,-102.05078125,-29.78515625,-34.66796875,-58.10546875,0.0,0
1586284577.0570624,62,1,-160.64453125,-31.73828125,-41.50390625,-87.890625,0.0,0
1586284577.0609686,62,1,-44.43359375,-42.96875,-35.15625,-28.80859375,0.0,0
1586284577.064875,62,1,94.23828125,-41.50390625,-35.15625,46.875,0.0,0
1586284577.0687811,62,1,80.56640625,-32.2265625,-32.2265625,43.9453125,0.0,0
1586284577.0726874,62,1,-65.4296875,-28.3203125,-18.06640625,-34.1796875,0.0,0
1586284577.0765936,62,1,-158.203125,-35.64453125,-15.625,-78.61328125,0.0,0
1586284577.0805,62,1,-63.96484375,-38.57421875,-23.92578125,-33.203125,0.0,0
1586284577.0844061,62,1,80.56640625,-33.203125,-27.34375,41.9921875,0.0,0
1586284577.0883124,62,1,77.63671875,-33.69140625,-20.99609375,36.62109375,0.0,0
1586284577.0922186,62,1,-66.40625,-25.390625,-16.11328125,-35.15625,0.0,0
1586284577.096125,62,1,-166.015625,-36.62109375,-16.6015625,-84.47265625,0.0,0
1586284577.1000311,62,1,-87.40234375,-47.8515625,-18.5546875,-51.7578125,0.0,0
1586284577.1039374,62,1,70.3125,-35.15625,-22.94921875,19.04296875,0.0,0
1586284577.1078436,62,1,105.46875,-31.25,-13.18359375,28.3203125,0.0,0
1586284577.11175,62,1,-26.85546875,-40.0390625,-3.90625,-39.55078125,0.0,0
1586284577.1156561,62,1,-135.25390625,-34.66796875,-4.8828125,-90.8203125,0.0,0
1586284577.1195624,62,1,-80.078125,-24.90234375,-4.8828125,-53.22265625,0.0,0
1586284577.1234686,62,1,71.2890625,-23.4375,-5.859375,25.87890625,0.0,0
1586284577.127375,62,1,123.53515625,-21.97265625,-3.90625,57.6171875,0.0,0
1586284577.1312811,62,1,-6.8359375,-23.92578125,-11.23046875,-3.90625,0.0,0
1586284577.1351874,62,1,-140.625,-34.1796875,-34.66796875,-83.984375,0.0,0
1586284577.1390936,62,1,-104.98046875,-38.57421875,-33.203125,-57.12890625,0.0,0
1586284577.143,62,1,50.29296875,-25.87890625,-12.6953125,35.64453125,0.0,0
1586284577.1469061,62,1,119.140625,-24.4140625,-11.23046875,60.05859375,0.0,0
1586284577.1508124,62,1,14.6484375,-27.83203125,-8.30078125,-0.48828125,0.0,0
1586284577.1547186,62,1,-127.9296875,-30.2734375,-9.765625,-70.3125,0.0,0
1586284577.158625,62,1,-118.1640625,-31.73828125,-20.01953125,-65.91796875,0.0,0
1586284577.1625311,62,1,35.15625,-28.3203125,-21.97265625,8.30078125,0.0,0
1586284577.1664374,62,1,129.8828125,-22.94921875,-24.90234375,49.8046875,0.0,0
1586284577.1703436,62,1,38.57421875,-20.5078125,-21.97265625,0.48828125,0.0,0
1586284577.17425,62,1,-124.51171875,-22.94921875,-14.6484375,-72.75390625,0.0,0
1586284577.1781561,62,1,-144.53125,-33.69140625,-27.83203125,-83.49609375,0.0,0
1586284577.1820624,62,1,-7.32421875,-38.57421875,-43.9453125,-22.94921875,0.0,0
1586284577.1859686,62,1,99.609375,-31.73828125,-52.734375,28.3203125,0.0,0
1586284577.189875,62,1,30.76171875,-25.87890625,-55.6640625,-1.46484375,0.0,0
1586284577.1937811,62,1,-125.0,-21.484375,-52.24609375,-85.44921875,0.0,0
1586284577.1976874,62,1,-154.78515625,-22.94921875,-47.36328125,-99.12109375,0.0,0
1586284577.2015936,62,1,-13.671875,-29.296875,-36.1328125,-27.34375,0.0,0
1586284577.2055,62,1,116.2109375,-26.85546875,-34.1796875,39.0625,0.0,0
1586284577.2094061,62,1,64.453125,-31.73828125,-32.2265625,18.06640625,0.0,0
1586284577.2133124,62,1,-91.30859375,-36.62109375,-25.87890625,-63.96484375,0.0,0
1586284577.2172186,62,1,-141.11328125,-32.2265625,-23.4375,-86.42578125,0.0,0
1586284577.221125,62,1,-28.3203125,-33.203125,-20.99609375,-30.2734375,0.0,0
1586284577.2250311,62,1,101.07421875,-33.203125,-22.94921875,36.62109375,0.0,0
1586284577.2289374,62,1,76.171875,-37.109375,-31.25,28.3203125,0.0,0
1586284577.2328436,62,1,-86.9140625,-42.96875,-39.0625,-57.6171875,0.0,0
1586284577.23675,62,1,-163.0859375,-37.109375,-35.64453125,-97.65625,0.0,0
1586284577.2406561,62,1,-59.5703125,-32.2265625,-45.41015625,-50.78125,0.0,0
1586284577.2445624,62,1,85.44921875,-37.109375,-63.4765625,18.06640625,0.0,0
1586284577.2484686,62,1,86.42578125,-33.203125,-65.91796875,14.6484375,0.0,0
1586284577.252375,62,1,-62.98828125,-29.296875,-53.22265625,-49.8046875,0.0,0
1586284577.2562811,62,1,-158.203125,-33.203125,-43.45703125,-97.65625,0.0,0
1586284577.2601874,62,1,-75.68359375,-38.0859375,-42.96875,-61.5234375,0.0,0
1586284577.2640936,62,1,63.96484375,-32.71484375,-44.43359375,34.1796875,0.0,0
1586284577.268,62,1,90.33203125,-24.90234375,-42.96875,52.734375,0.0,0
1586284577.2719061,62,1,-38.0859375,-25.87890625,-39.55078125,-15.625,0.0,0
1586284577.2758124,62,1,-148.92578125,-28.80859375,-39.55078125,-72.265625,0.0,0
1586284577.2797186,62,1,-92.28515625,-28.3203125,-40.52734375,-48.33984375,0.0,0
1586284577.283625,62,1,61.03515625,-24.4140625,-35.15625,20.01953125,0.0,0
1586284577.2875311,62,1,110.3515625,-23.4375,-33.203125,39.55078125,0.0,0
1586284577.2914374,62,1,-14.16015625,-20.01953125,-33.203125,-20.01953125,0.0,0
1586284577.2953436,62,1,-135.25390625,-15.625,-30.76171875,-84.9609375,0.0,0
1586284577.29925,62,1,-87.40234375,-25.87890625,-28.80859375,-63.96484375,0.0,0
1586284577.3031561,62,1,65.91796875,-25.390625,-25.87890625,13.18359375,0.0,0
1586284577.3070624,62,1,125.0,-16.6015625,-29.78515625,41.015625,0.0,0
1586284577.3109686,62,1,10.25390625,-17.578125,-33.69140625,-6.34765625,0.0,0
1586284577.314875,62,1,-125.0,-20.5078125,-36.1328125,-75.68359375,0.0,0
1586284577.3187811,62,1,-106.93359375,-24.90234375,-39.0625,-76.171875,0.0,0
1586284577.3226874,62,1,31.73828125,-30.2734375,-37.109375,1.46484375,0.0,0
1586284577.3265936,62,1,113.28125,-32.71484375,-40.52734375,45.41015625,0.0,0
1586284577.3305,62,1,24.90234375,-30.76171875,-40.52734375,-8.30078125,0.0,0
1586284577.3344061,62,1,-124.51171875,-31.73828125,-41.015625,-88.8671875,0.0,0
1586284577.3383124,62,1,-130.37109375,-32.71484375,-36.62109375,-81.0546875,0.0,0
1586284577.3422186,62,1,14.6484375,-33.203125,-32.2265625,3.90625,0.0,0
1586284577.346125,62,1,119.62890625,-37.59765625,-33.69140625,49.31640625,0.0,0
1586284577.3500311,62,1,48.33984375,-31.25,-43.45703125,9.27734375,0.0,0
1586284577.3539374,62,1,-105.95703125,-28.80859375,-47.36328125,-59.08203125,0.0,0
1586284577.3578436,62,1,-138.18359375,-29.78515625,-28.80859375,-76.171875,0.0,0
1586284577.36175,62,1,-7.8125,-29.78515625,-20.99609375,-18.06640625,0.0,0
1586284577.3656561,62,1,109.375,-31.73828125,-19.53125,41.50390625,0.0,0
1586284577.3695624,62,1,55.17578125,-32.2265625,-6.8359375,13.18359375,0.0,0
1586284577.3734686,62,1,-104.00390625,-31.25,-16.11328125,-66.40625,0.0,0
1586284577.377375,62,1,-149.90234375,-30.2734375,-25.390625,-86.9140625,0.0,0
1586284577.3812811,62,1,-23.4375,-29.78515625,-16.11328125,-20.99609375,0.0,0
1586284577.3851874,62,1,106.4453125,-35.15625,-17.08984375,37.109375,0.0,0
1586284577.3890936,62,1,74.21875,-33.203125,-20.01953125,11.23046875,0.0,0
1586284577.393,62,1,-78.125,-27.34375,-20.99609375,-61.5234375,0.0,0
1586284577.3969061,62,1,-152.83203125,-30.2734375,-26.85546875,-84.9609375,0.0,0
1586284577.4008124,62,1,-53.22265625,-27.83203125,-32.2265625,-35.15625,0.0,0
1586284577.4047186,62,1,89.35546875,-22.4609375,-25.87890625,37.109375,0.0,0
1586284577.408625,62,1,73.2421875,-19.04296875,-20.5078125,40.52734375,0.0,0
1586284577.4125311,62,1,-83.0078125,-25.390625,-24.4140625,-40.0390625,0.0,0
1586284577.4164374,62,1,-163.57421875,-38.0859375,-29.296875,-75.1953125,0.0,0
1586284577.4203436,62,1,-66.89453125,-33.69140625,-26.85546875,-25.87890625,0.0,0
1586284577.42425,62,1,81.54296875,-31.25,-33.203125,35.64453125,0.0,0
1586284577.4281561,62,1,97.65625,-44.43359375,-38.57421875,38.57421875,0.0,0
1586284577.4320624,62,1,-42.48046875,-35.64453125,-33.203125,-38.57421875,0.0,0
1586284577.4359686,62,1,-149.4140625,-20.99609375,-37.109375,-101.5625,0.0,0
1586284577.439875,62,1,-79.58984375,-23.4375,-54.6875,-55.17578125,0.0,0
1586284577.4437811,62,1,56.15234375,-30.2734375,-66.40625,25.87890625,0.0,0
1586284577.4476874,62,1,92.7734375,-28.80859375,-61.03515625,28.3203125,0.0,0
1586284577.4515936,62,1,-24.90234375,-23.4375,-54.19921875,-42.48046875,0.0,0
1586284577.4555,62,1,-148.92578125,-24.4140625,-53.22265625,-90.8203125,0.0,0
1586284577.4594061,62,1,-98.6328125,-28.80859375,-54.19921875,-55.6640625,0.0,0
1586284577.4633124,62,1,53.7109375,-28.80859375,-57.12890625,13.671875,0.0,0
1586284577.4672186,62,1,94.7265625,-34.66796875,-59.08203125,34.1796875,0.0,0
1586284577.471125,62,1,-11.71875,-32.71484375,-53.7109375,-14.16015625,0.0,0
1586284577.4750311,62,1,-121.09375,-29.78515625,-58.10546875,-74.21875,0.0,0
1586284577.4789374,62,1,-104.4921875,-29.78515625,-63.96484375,-74.70703125,0.0,0
1586284577.4828436,62,1,45.8984375,-25.390625,-61.03515625,-1.46484375,0.0,0
1586284577.48675,62,1,119.140625,-27.34375,-59.08203125,45.41015625,0.0,0
1586284577.4906561,62,1,10.7421875,-32.71484375,-59.5703125,-7.32421875,0.0,0
1586284577.4945624,62,1,-126.953125,-36.1328125,-58.10546875,-82.51953125,0.0,0
1586284577.4984686,62,1,-120.1171875,-35.64453125,-48.828125,-83.984375,0.0,0
1586284577.502375,62,1,25.87890625,-22.94921875,-37.59765625,-1.46484375,0.0,0
1586284577.5062811,62,1,126.953125,-16.11328125,-30.76171875,55.6640625,0.0,0
1586284577.5101874,62,1,50.78125,-22.94921875,-35.64453125,10.25390625,0.0,0
1586284577.5140936,62,1,-102.05078125,-26.3671875,-38.0859375,-66.89453125,0.0,0
1586284577.518,62,1,-128.41796875,-22.4609375,-37.59765625,-81.0546875,0.0,0
1586284577.5219061,62,1,9.765625,-20.01953125,-36.1328125,-11.23046875,0.0,0
1586284577.5258124,62,1,129.8828125,-28.3203125,-31.25,50.78125,0.0,0
1586284577.5297186,62,1,73.73046875,-35.64453125,-25.87890625,19.53125,0.0,0
1586284577.533625,62,1,-89.35546875,-37.59765625,-32.2265625,-61.03515625,0.0,0
1586284577.5375311,62,1,-140.625,-41.50390625,-41.015625,-82.03125,0.0,0
1586284577.5414374,62,1,-17.578125,-48.33984375,-51.26953125,-28.3203125,0.0,0
1586284577.5453436,62,1,116.69921875,-41.50390625,-54.6875,31.73828125,0.0,0
1586284577.54925,62,1,78.125,-34.66796875,-36.62109375,31.25,0.0,0
1586284577.5531561,62,1,-81.0546875,-29.296875,-32.2265625,-48.33984375,0.0,0
1586284577.5570624,62,1,-147.4609375,-29.296875,-46.38671875,-90.8203125,0.0,0
1586284577.5609686,62,1,-45.41015625,-34.66796875,-41.50390625,-34.1796875,0.0,0
1586284577.564875,62,1,100.09765625,-28.3203125,-37.109375,45.41015625,0.0,0
1586284577.5687811,62,1,100.09765625,-16.11328125,-33.203125,42.96875,0.0,0
1586284577.5726874,62,1,-51.7578125,-20.99609375,-30.2734375,-31.73828125,0.0,0
1586284577.5765936,62,1,-148.4375,-34.1796875,-43.9453125,-75.68359375,0.0,0
1586284577.5805,62,1,-58.59375,-37.109375,-57.12890625,-29.78515625,0.0,0
1586284577.5844061,62,1,96.6796875,-38.57421875,-59.5703125,48.828125,0.0,0
1586284577.5883124,62,1,107.91015625,-38.57421875,-52.24609375,37.109375,0.0,0
1586284577.5922186,62,1,-39.0625,-33.203125,-47.8515625,-36.1328125,0.0,0
1586284577.596125,62,1,-154.78515625,-31.73828125,-53.22265625,-73.2421875,0.0,0
1586284577.6000311,62,1,-90.8203125,-28.80859375,-52.24609375,-52.24609375,0.0,0
1586284577.6039374,62,1,67.87109375,-25.390625,-52.24609375,11.71875,0.0,0
1586284577.6078436,62,1,108.3984375,-21.97265625,-49.31640625,34.66796875,0.0,0
1586284577.61175,62,1,-20.01953125,-20.01953125,-41.9921875,-26.3671875,0.0,0
1586284577.6156561,62,1,-137.20703125,-22.4609375,-37.59765625,-83.984375,0.0,0
1586284577.6195624,62,1,-82.51953125,-20.99609375,-49.31640625,-59.08203125,0.0,0
1586284577.6234686,62,1,76.66015625,-20.5078125,-49.31640625,25.87890625,0.0,0
1586284577.627375,62,1,136.23046875,-27.83203125,-40.0390625,54.19921875,0.0,0
1586284577.6312811,62,1,14.16015625,-30.76171875,-38.0859375,-12.6953125,0.0,0
1586284577.6351874,62,1,-123.046875,-23.92578125,-32.71484375,-77.63671875,0.0,0
1586284577.6390936,62,1,-93.26171875,-23.4375,-32.2265625,-56.15234375,0.0,0
1586284577.643,62,1,59.08203125,-21.484375,-25.87890625,18.06640625,0.0,0
1586284577.6469061,62,1,130.859375,-22.94921875,-29.78515625,46.38671875,0.0,0
1586284577.6508124,62,1,30.2734375,-31.25,-44.43359375,3.41796875,0.0,0
1586284577.6547186,62,1,-117.67578125,-35.64453125,-45.41015625,-69.3359375,0.0,0
1586284577.658625,62,1,-110.83984375,-33.69140625,-37.109375,-77.63671875,0.0,0
1586284577.6625311,62,1,46.875,-32.2265625,-34.1796875,5.859375,0.0,0
1586284577.6664374,62,1,137.6953125,-38.57421875,-40.52734375,62.5,0.0,0
