timestamps,words,terms,TP9,AF7,AF8,TP10,Right AUX,Marker
1586284429.814875,1,1,-206.0546875,53.22265625,75.68359375,18.5546875,0.0,0
1586284429.8187811,1,1,-466.30859375,46.875,85.9375,-61.5234375,0.0,0
1586284429.8226874,1,1,-286.1328125,46.875,83.0078125,10.7421875,0.0,0
1586284429.8265936,1,1,96.19140625,55.17578125,88.37890625,149.90234375,0.0,0
1586284429.8305,1,1,130.37109375,45.41015625,98.14453125,175.29296875,0.0,0
1586284429.8344061,1,1,-244.62890625,28.3203125,109.375,57.12890625,0.0,0
1586284429.8383124,1,1,-564.453125,47.36328125,101.5625,-68.359375,0.0,0
1586284429.8422186,1,1,-458.984375,62.98828125,90.33203125,-16.11328125,0.0,0
1586284429.846125,1,1,-80.078125,51.26953125,96.6796875,152.83203125,0.0,0
1586284429.8500311,1,1,30.2734375,57.6171875,110.3515625,211.9140625,0.0,0
1586284429.8539374,1,1,-324.21875,52.24609375,91.796875,65.91796875,0.0,0
1586284429.8578436,1,1,-683.10546875,40.52734375,75.68359375,-72.265625,0.0,0
1586284429.86175,1,1,-611.328125,49.8046875,92.28515625,-17.08984375,0.0,0
1586284429.8656561,1,1,-235.3515625,40.0390625,102.5390625,142.08984375,0.0,0
1586284429.8695624,1,1,-82.51953125,14.6484375,93.75,197.75390625,0.0,0
1586284429.8734686,1,1,-418.9453125,15.625,85.44921875,68.359375,0.0,0
1586284429.877375,1,1,-858.88671875,40.52734375,92.7734375,-52.24609375,0.0,0
1586284429.8812811,1,1,-886.71875,50.78125,105.95703125,-6.8359375,0.0,0
1586284429.8851874,1,1,-556.640625,42.96875,98.14453125,126.953125,0.0,0
1586284429.8890936,1,1,-388.671875,32.71484375,84.9609375,187.01171875,0.0,0
1586284429.893,1,1,-704.1015625,41.50390625,90.33203125,103.515625,0.0,0
1586284429.8969061,1,1,-992.1875,45.41015625,91.796875,-35.15625,0.0,0
1586284429.9008124,1,1,-1000.0,13.18359375,75.68359375,-66.89453125,0.0,0
1586284429.9047186,1,1,-881.34765625,21.97265625,80.078125,83.0078125,0.0,0
1586284429.908625,1,1,-673.33984375,49.31640625,89.84375,190.91796875,0.0,0
1586284429.9125311,1,1,-863.76953125,49.31640625,84.47265625,98.6328125,0.0,0
1586284429.9164374,1,1,-1000.0,46.38671875,75.1953125,-56.15234375,0.0,0
1586284429.9203436,1,1,-998.046875,48.33984375,85.9375,-69.3359375,0.0,0
1586284429.92425,1,1,-984.86328125,44.921875,94.23828125,83.49609375,0.0,0
1586284429.9281561,1,1,-950.1953125,43.45703125,91.30859375,199.21875,0.0,0
1586284429.9320624,1,1,-992.1875,56.15234375,87.890625,125.48828125,0.0,0
1586284429.9359686,1,1,-1000.0,43.9453125,72.265625,-34.66796875,0.0,0
1586284429.939875,1,1,-997.55859375,54.19921875,83.0078125,-57.12890625,0.0,0
1586284429.9437811,1,1,-1000.0,61.5234375,81.0546875,45.8984375,0.0,0
1586284429.9476874,1,1,-1000.0,42.96875,64.94140625,129.39453125,0.0,0
1586284429.9515936,1,1,-1000.0,44.43359375,71.77734375,110.3515625,0.0,0
1586284429.9555,1,1,-1000.0,43.9453125,70.3125,-23.4375,0.0,0
1586284429.9594061,1,1,-1000.0,34.1796875,62.5,-96.19140625,0.0,0
1586284429.9633124,1,1,-1000.0,23.4375,64.453125,6.34765625,0.0,0
1586284429.9672186,1,1,-1000.0,17.08984375,71.77734375,156.73828125,0.0,0
1586284429.971125,1,1,-1000.0,27.34375,75.68359375,158.69140625,0.0,0
1586284429.9750311,1,1,-1000.0,51.26953125,72.75390625,7.8125,0.0,0
1586284429.9789374,1,1,-1000.0,63.4765625,71.77734375,-83.984375,0.0,0
1586284429.9828436,1,1,-1000.0,68.84765625,78.61328125,20.5078125,0.0,0
1586284429.98675,1,1,-1000.0,56.640625,84.9609375,165.0390625,0.0,0
1586284429.9906561,1,1,-1000.0,25.390625,61.5234375,124.0234375,0.0,0
1586284429.9945624,1,1,-1000.0,29.78515625,55.17578125,-8.7890625,0.0,0
1586284429.9984686,1,1,-1000.0,35.15625,68.84765625,-79.58984375,0.0,0
1586284430.002375,1,1,-1000.0,21.97265625,64.453125,-17.08984375,0.0,0
1586284430.0062811,1,1,-1000.0,37.59765625,57.6171875,120.60546875,0.0,0
1586284430.0101874,1,1,-1000.0,52.734375,60.546875,152.83203125,0.0,0
1586284430.0140936,1,1,-1000.0,51.7578125,72.265625,26.85546875,0.0,0
1586284430.018,1,1,-1000.0,49.8046875,74.70703125,-86.42578125,0.0,0
1586284430.0219061,1,1,-1000.0,49.8046875,75.1953125,-23.92578125,0.0,0
1586284430.0258124,1,1,-1000.0,37.109375,70.80078125,115.72265625,0.0,0
1586284430.0297186,1,1,-1000.0,45.8984375,78.125,198.2421875,0.0,0
1586284430.033625,1,1,-1000.0,48.33984375,67.3828125,73.2421875,0.0,0
1586284430.0375311,1,1,-1000.0,23.4375,50.29296875,-102.05078125,0.0,0
1586284430.0414374,1,1,-1000.0,30.2734375,56.640625,-49.31640625,0.0,0
1586284430.0453436,1,1,-1000.0,39.55078125,66.40625,119.140625,0.0,0
1586284430.04925,1,1,-1000.0,31.73828125,77.1484375,172.8515625,0.0,0
1586284430.0531561,1,1,-1000.0,27.34375,79.58984375,57.12890625,0.0,0
1586284430.0570624,1,1,-1000.0,45.8984375,92.28515625,-52.24609375,0.0,0
1586284430.0609686,1,1,-1000.0,47.8515625,84.47265625,-47.36328125,0.0,0
1586284430.064875,1,1,-1000.0,30.2734375,70.80078125,75.1953125,0.0,0
1586284430.0687811,1,1,-999.0234375,28.3203125,69.3359375,173.33984375,0.0,0
1586284430.0726874,1,1,-1000.0,44.921875,68.84765625,118.1640625,0.0,0
1586284430.0765936,1,1,-986.81640625,55.17578125,79.58984375,-22.4609375,0.0,0
1586284430.0805,1,1,-1000.0,37.109375,75.1953125,-78.125,0.0,0
1586284430.0844061,1,1,-885.25390625,31.73828125,71.2890625,56.640625,0.0,0
1586284430.0883124,1,1,-537.59765625,42.96875,76.66015625,169.43359375,0.0,0
1586284430.0922186,1,1,-647.4609375,43.9453125,67.87109375,101.5625,0.0,0
1586284430.096125,1,1,-975.09765625,33.203125,63.96484375,-54.6875,0.0,0
1586284430.1000311,1,1,-999.0234375,21.484375,75.68359375,-66.89453125,0.0,0
1586284430.1039374,1,1,-761.71875,33.203125,82.03125,89.84375,0.0,0
1586284430.1078436,1,1,-421.38671875,41.9921875,83.49609375,186.5234375,0.0,0
1586284430.11175,1,1,-490.234375,38.0859375,83.0078125,140.13671875,0.0,0
1586284430.1156561,1,1,-867.1875,54.19921875,102.5390625,18.5546875,0.0,0
1586284430.1195624,1,1,-1000.0,53.7109375,99.12109375,-51.7578125,0.0,0
1586284430.1234686,1,1,-826.171875,43.9453125,80.56640625,40.0390625,0.0,0
1586284430.127375,1,1,-375.0,41.50390625,78.125,168.9453125,0.0,0
1586284430.1312811,1,1,-344.7265625,22.4609375,87.890625,146.484375,0.0,0
1586284430.1351874,1,1,-752.44140625,41.015625,105.95703125,27.34375,0.0,0
1586284430.1390936,1,1,-1000.0,53.22265625,85.9375,-67.87109375,0.0,0
1586284430.143,1,1,-833.0078125,38.0859375,63.96484375,0.0,0.0,0
1586284430.1469061,1,1,-382.32421875,47.8515625,69.82421875,153.80859375,0.0,0
1586284430.1508124,1,1,-312.5,44.921875,86.42578125,168.9453125,0.0,0
1586284430.1547186,1,1,-733.3984375,29.296875,91.796875,21.97265625,0.0,0
1586284430.158625,1,1,-1000.0,44.921875,88.37890625,-75.1953125,0.0,0
1586284430.1625311,1,1,-855.46875,63.4765625,99.12109375,22.94921875,0.0,0
1586284430.1664374,1,1,-400.390625,57.6171875,100.5859375,164.55078125,0.0,0
1586284430.1703436,1,1,-263.671875,41.50390625,83.49609375,161.62109375,0.0,0
1586284430.17425,1,1,-617.67578125,45.41015625,89.84375,37.59765625,0.0,0
1586284430.1781561,1,1,-977.5390625,44.43359375,88.8671875,-72.265625,0.0,0
1586284430.1820624,1,1,-862.79296875,30.2734375,70.80078125,-20.01953125,0.0,0
1586284430.1859686,1,1,-404.78515625,20.5078125,66.40625,123.046875,0.0,0
1586284430.189875,1,1,-167.96875,29.78515625,74.21875,167.96875,0.0,0
1586284430.1937811,1,1,-439.453125,47.8515625,79.1015625,56.15234375,0.0,0
1586284430.1976874,1,1,-844.23828125,43.9453125,70.80078125,-72.265625,0.0,0
1586284430.2015936,1,1,-799.8046875,41.9921875,57.6171875,-38.57421875,0.0,0
1586284430.2055,1,1,-359.375,48.828125,74.70703125,113.76953125,0.0,0
1586284430.2094061,1,1,-110.83984375,53.7109375,101.5625,183.10546875,0.0,0
1586284430.2133124,1,1,-381.8359375,42.48046875,83.984375,60.546875,0.0,0
1586284430.2172186,1,1,-759.27734375,22.94921875,63.96484375,-84.9609375,0.0,0
1586284430.221125,1,1,-697.265625,29.78515625,67.3828125,-66.40625,0.0,0
1586284430.2250311,1,1,-246.09375,41.50390625,83.0078125,86.42578125,0.0,0
1586284430.2289374,1,1,55.6640625,40.52734375,76.171875,159.66796875,0.0,0
1586284430.2328436,1,1,-154.78515625,44.921875,61.03515625,61.5234375,0.0,0
1586284430.23675,1,1,-567.3828125,43.45703125,71.2890625,-60.05859375,0.0,0
1586284430.2406561,1,1,-610.83984375,35.15625,80.078125,-62.01171875,0.0,0
1586284430.2445624,1,1,-193.84765625,35.15625,79.1015625,53.7109375,0.0,0
1586284430.2484686,1,1,192.3828125,36.62109375,89.84375,150.390625,0.0,0
1586284430.252375,1,1,81.0546875,45.41015625,105.46875,95.703125,0.0,0
1586284430.2562811,1,1,-301.26953125,53.7109375,107.91015625,-36.1328125,0.0,0
1586284430.2601874,1,1,-361.81640625,53.7109375,101.07421875,-71.2890625,0.0,0
1586284430.2640936,1,1,54.19921875,42.48046875,94.23828125,45.41015625,0.0,0
1586284430.268,1,1,485.83984375,40.52734375,90.33203125,177.734375,0.0,0
1586284430.2719061,1,1,460.44921875,45.41015625,86.42578125,135.25390625,0.0,0
1586284430.2758124,1,1,-27.83203125,35.15625,68.359375,-65.4296875,0.0,0
1586284430.2797186,1,1,-130.859375,47.36328125,70.80078125,-75.68359375,0.0,0
1586284430.283625,1,1,204.58984375,44.921875,71.77734375,41.015625,0.0,0
1586284430.2875311,1,1,-69.82421875,38.57421875,71.2890625,-44.921875,0.0,0
1586284430.2914374,1,1,-175.29296875,36.1328125,69.82421875,-57.6171875,0.0,0
1586284430.2953436,1,1,222.65625,34.66796875,60.546875,89.35546875,0.0,0
1586284430.29925,1,1,406.25,44.921875,60.546875,160.64453125,0.0,0
1586284430.3031561,1,1,116.2109375,53.22265625,70.80078125,92.28515625,0.0,0
1586284430.3070624,1,1,-323.73046875,49.8046875,73.73046875,-33.69140625,0.0,0
1586284430.3109686,1,1,-396.484375,39.55078125,60.05859375,-77.1484375,0.0,0
1586284430.314875,1,1,3.41796875,38.57421875,57.6171875,49.31640625,0.0,0
1586284430.3187811,1,1,359.375,47.36328125,62.5,178.7109375,0.0,0
1586284430.3226874,1,1,197.265625,55.17578125,66.40625,116.2109375,0.0,0
1586284430.3265936,1,1,-241.2109375,41.50390625,65.4296875,-50.78125,0.0,0
1586284430.3305,1,1,-324.21875,40.52734375,72.265625,-58.59375,0.0,0
1586284430.3344061,1,1,78.125,55.6640625,75.1953125,86.42578125,0.0,0
1586284430.3383124,1,1,464.84375,53.7109375,64.453125,174.8046875,0.0,0
1586284430.3422186,1,1,379.8828125,41.9921875,61.03515625,123.046875,0.0,0
1586284430.346125,1,1,-24.90234375,21.484375,55.6640625,-21.484375,0.0,0
1586284430.3500311,1,1,-143.06640625,38.57421875,67.3828125,-50.29296875,0.0,0
1586284430.3539374,1,1,180.17578125,52.734375,64.453125,43.45703125,0.0,0
1586284430.3578436,1,1,573.2421875,39.0625,41.50390625,137.20703125,0.0,0
1586284430.36175,1,1,577.63671875,47.36328125,42.48046875,129.8828125,0.0,0
1586284430.3656561,1,1,200.1953125,60.546875,71.77734375,19.04296875,0.0,0
1586284430.3695624,1,1,-44.43359375,35.15625,57.6171875,-88.8671875,0.0,0
1586284430.3734686,1,1,225.09765625,24.90234375,41.015625,-19.53125,0.0,0
1586284430.377375,1,1,684.5703125,38.57421875,55.6640625,145.5078125,0.0,0
1586284430.3812811,1,1,741.69921875,34.1796875,59.08203125,134.765625,0.0,0
1586284430.3851874,1,1,368.1640625,18.5546875,54.6875,-23.92578125,0.0,0
1586284430.3890936,1,1,102.5390625,21.484375,57.12890625,-94.7265625,0.0,0
1586284430.393,1,1,322.265625,41.50390625,59.5703125,5.37109375,0.0,0
1586284430.3969061,1,1,737.3046875,46.38671875,57.6171875,141.6015625,0.0,0
1586284430.4008124,1,1,798.828125,34.1796875,52.24609375,146.97265625,0.0,0
1586284430.4047186,1,1,428.22265625,35.15625,48.828125,4.39453125,0.0,0
1586284430.408625,1,1,116.2109375,59.08203125,61.5234375,-80.078125,0.0,0
1586284430.4125311,1,1,266.11328125,62.5,63.96484375,-15.625,0.0,0
1586284430.4164374,1,1,711.42578125,24.90234375,40.52734375,88.8671875,0.0,0
1586284430.4203436,1,1,901.3671875,9.27734375,41.50390625,139.6484375,0.0,0
1586284430.42425,1,1,606.93359375,36.62109375,58.10546875,34.66796875,0.0,0
1586284430.4281561,1,1,249.51171875,45.8984375,57.12890625,-90.8203125,0.0,0
1586284430.4320624,1,1,337.40234375,44.43359375,59.08203125,-45.41015625,0.0,0
1586284430.4359686,1,1,757.32421875,55.6640625,71.2890625,102.05078125,0.0,0
1586284430.439875,1,1,945.3125,62.01171875,71.2890625,161.62109375,0.0,0
1586284430.4437811,1,1,687.98828125,65.91796875,61.5234375,67.87109375,0.0,0
1586284430.4476874,1,1,303.22265625,50.78125,49.8046875,-82.51953125,0.0,0
1586284430.4515936,1,1,361.81640625,34.1796875,53.22265625,-65.91796875,0.0,0
1586284430.4555,1,1,805.6640625,51.26953125,64.453125,115.234375,0.0,0
1586284430.4594061,1,1,998.53515625,36.62109375,42.48046875,156.25,0.0,0
1586284430.4633124,1,1,917.96875,17.578125,40.52734375,40.0390625,0.0,0
1586284430.4672186,1,1,690.91796875,34.1796875,68.359375,-62.98828125,0.0,0
1586284430.471125,1,1,760.7421875,33.203125,69.82421875,-53.22265625,0.0,0
1586284430.4750311,1,1,970.703125,24.4140625,55.17578125,77.1484375,0.0,0
1586284430.4789374,1,1,965.8203125,29.296875,63.4765625,182.12890625,0.0,0
1586284430.4828436,1,1,961.9140625,34.66796875,71.77734375,110.83984375,0.0,0
1586284430.48675,1,1,968.26171875,39.55078125,55.6640625,-41.50390625,0.0,0
1586284430.4906561,1,1,966.796875,44.43359375,49.8046875,-45.8984375,0.0,0
1586284430.4945624,1,1,966.796875,44.43359375,52.734375,59.5703125,0.0,0
1586284430.4984686,1,1,966.796875,43.9453125,59.5703125,169.921875,0.0,0
1586284430.502375,1,1,966.796875,38.57421875,63.4765625,135.25390625,0.0,0
1586284430.5062811,1,1,966.796875,20.99609375,50.29296875,-52.734375,0.0,0
1586284430.5101874,1,1,966.796875,24.90234375,60.05859375,-91.796875,0.0,0
1586284430.5140936,1,1,966.796875,36.62109375,69.3359375,49.8046875,0.0,0
1586284430.518,1,1,966.796875,31.73828125,60.546875,162.109375,0.0,0
1586284430.5219061,1,1,966.796875,10.7421875,61.5234375,112.79296875,0.0,0
1586284430.5258124,1,1,966.796875,20.01953125,72.265625,-20.5078125,0.0,0
1586284430.5297186,1,1,966.796875,62.01171875,75.68359375,-58.10546875,0.0,0
1586284430.533625,1,1,966.796875,63.4765625,62.98828125,17.08984375,0.0,0
1586284430.5375311,1,1,966.30859375,58.10546875,70.3125,141.11328125,0.0,0
1586284430.5414374,1,1,966.796875,66.89453125,81.54296875,135.25390625,0.0,0
1586284430.5453436,1,1,966.796875,72.75390625,83.49609375,8.30078125,0.0,0
1586284430.54925,1,1,966.30859375,52.734375,54.19921875,-104.4921875,0.0,0
1586284430.5531561,1,1,966.796875,34.1796875,30.2734375,-55.17578125,0.0,0
1586284430.5570624,1,1,966.796875,41.015625,48.828125,124.0234375,0.0,0
1586284430.5609686,1,1,966.796875,41.9921875,61.03515625,150.390625,0.0,0
1586284430.564875,1,1,966.796875,30.76171875,58.59375,-12.20703125,0.0,0
1586284430.5687811,1,1,966.796875,32.2265625,65.91796875,-97.16796875,0.0,0
1586284430.5726874,1,1,966.796875,38.0859375,76.171875,-11.23046875,0.0,0
1586284430.5765936,1,1,966.796875,33.203125,68.84765625,124.0234375,0.0,0
1586284430.5805,1,1,966.796875,29.296875,64.94140625,148.92578125,0.0,0
1586284430.5844061,1,1,966.796875,30.76171875,73.73046875,37.59765625,0.0,0
1586284430.5883124,1,1,966.796875,32.2265625,79.1015625,-72.265625,0.0,0
1586284430.5922186,1,1,966.796875,29.296875,73.73046875,-35.15625,0.0,0
1586284430.596125,1,1,966.796875,22.94921875,51.7578125,80.078125,0.0,0
1586284430.6000311,1,1,966.796875,26.85546875,47.36328125,137.6953125,0.0,0
1586284430.6039374,1,1,966.796875,39.55078125,60.05859375,56.640625,0.0,0
1586284430.6078436,1,1,966.30859375,43.45703125,64.94140625,-75.68359375,0.0,0
1586284430.61175,1,1,966.796875,25.390625,63.96484375,-59.08203125,0.0,0
1586284430.6156561,1,1,966.796875,5.859375,65.91796875,89.84375,0.0,0
1586284430.6195624,1,1,966.796875,24.4140625,72.75390625,173.33984375,0.0,0
1586284430.6234686,1,1,966.796875,35.64453125,75.1953125,82.03125,0.0,0
1586284430.627375,1,1,966.796875,21.484375,75.68359375,-63.4765625,0.0,0
1586284430.6312811,1,1,966.796875,27.83203125,80.56640625,-51.26953125,0.0,0
1586284430.6351874,1,1,966.796875,47.36328125,83.984375,109.86328125,0.0,0
1586284430.6390936,1,1,966.30859375,36.62109375,66.89453125,169.921875,0.0,0
1586284430.643,1,1,966.796875,22.94921875,54.6875,63.96484375,0.0,0
1586284430.6469061,1,1,966.796875,27.83203125,74.21875,-46.38671875,0.0,0
1586284430.6508124,1,1,966.796875,25.390625,81.54296875,-53.7109375,0.0,0
1586284430.6547186,1,1,966.796875,23.4375,66.89453125,55.17578125,0.0,0
1586284430.658625,1,1,966.796875,31.73828125,65.91796875,163.57421875,0.0,0
1586284430.6625311,1,1,966.30859375,34.66796875,80.078125,125.48828125,0.0,0
1586284430.6664374,1,1,966.796875,17.578125,78.61328125,-30.76171875,0.0,0
1586284430.6703436,1,1,966.796875,15.625,61.5234375,-86.9140625,0.0,0
1586284430.67425,1,1,966.796875,24.90234375,63.4765625,35.15625,0.0,0
1586284430.6781561,1,1,965.33203125,24.90234375,80.078125,172.36328125,0.0,0
1586284430.6820624,1,1,969.23828125,22.94921875,77.63671875,138.671875,0.0,0
1586284430.6859686,1,1,960.44921875,29.296875,69.82421875,-38.57421875,0.0,0
1586284430.689875,1,1,945.80078125,37.109375,82.03125,-85.44921875,0.0,0
1586284430.6937811,1,1,964.84375,23.92578125,85.44921875,33.69140625,0.0,0
1586284430.6976874,1,1,960.9375,18.5546875,75.68359375,143.06640625,0.0,0
1586284430.7015936,1,1,979.00390625,27.34375,62.98828125,109.86328125,0.0,0
1586284430.7055,1,1,931.640625,41.50390625,61.5234375,-20.99609375,0.0,0
1586284430.7094061,1,1,808.10546875,51.26953125,68.84765625,-81.0546875,0.0,0
1586284430.7133124,1,1,916.9921875,37.59765625,62.98828125,-2.9296875,0.0,0
1586284430.7172186,1,1,973.14453125,41.015625,59.08203125,128.90625,0.0,0
1586284430.721125,1,1,974.609375,37.109375,53.22265625,147.4609375,0.0,0
1586284430.7250311,1,1,902.83203125,43.9453125,66.40625,39.55078125,0.0,0
1586284430.7289374,1,1,661.1328125,47.8515625,65.91796875,-71.77734375,0.0,0
1586284430.7328436,1,1,775.390625,30.2734375,49.8046875,-26.85546875,0.0,0
1586284430.73675,1,1,966.30859375,31.25,58.59375,132.32421875,0.0,0
1586284430.7406561,1,1,978.02734375,45.41015625,74.21875,187.01171875,0.0,0
1586284430.7445624,1,1,826.171875,39.0625,60.546875,23.4375,0.0,0
1586284430.7484686,1,1,559.08203125,30.76171875,60.05859375,-93.75,0.0,0
1586284430.752375,1,1,664.55078125,25.87890625,61.03515625,-33.69140625,0.0,0
1586284430.7562811,1,1,929.6875,15.13671875,48.828125,105.95703125,0.0,0
1586284430.7601874,1,1,988.28125,11.71875,56.15234375,157.71484375,0.0,0
1586284430.7640936,1,1,851.5625,19.53125,65.4296875,49.31640625,0.0,0
1586284430.768,1,1,529.78515625,20.99609375,64.94140625,-61.5234375,0.0,0
1586284430.7719061,1,1,557.6171875,31.25,66.40625,-20.01953125,0.0,0
1586284430.7758124,1,1,884.27734375,33.203125,52.24609375,112.3046875,0.0,0
1586284430.7797186,1,1,994.140625,28.3203125,34.66796875,155.76171875,0.0,0
1586284430.783625,1,1,863.28125,34.1796875,54.19921875,84.47265625,0.0,0
1586284430.7875311,1,1,504.8828125,36.62109375,65.4296875,-40.0390625,0.0,0
1586284430.7914374,1,1,433.59375,13.18359375,33.69140625,-77.1484375,0.0,0
1586284430.7953436,1,1,777.83203125,9.27734375,26.85546875,70.80078125,0.0,0
1586284430.79925,1,1,986.328125,25.87890625,46.38671875,184.5703125,0.0,0
1586284430.8031561,1,1,850.5859375,25.390625,52.734375,97.16796875,0.0,0
1586284430.8070624,1,1,480.95703125,22.94921875,54.6875,-41.9921875,0.0,0
1586284430.8109686,1,1,403.80859375,34.66796875,60.05859375,-35.64453125,0.0,0
1586284430.814875,1,1,727.05078125,45.8984375,63.96484375,99.609375,0.0,0
1586284430.8187811,1,1,972.16796875,41.015625,61.5234375,183.10546875,0.0,0
1586284430.8226874,1,1,863.76953125,30.76171875,55.17578125,101.5625,0.0,0
1586284430.8265936,1,1,475.09765625,28.80859375,52.734375,-49.8046875,0.0,0
1586284430.8305,1,1,353.02734375,36.62109375,58.10546875,-50.29296875,0.0,0
1586284430.8344061,1,1,654.296875,18.5546875,40.0390625,55.17578125,0.0,0
1586284430.8383124,1,1,955.56640625,5.859375,32.71484375,154.78515625,0.0,0
1586284430.8422186,1,1,889.6484375,26.85546875,52.24609375,130.859375,0.0,0
1586284430.846125,1,1,496.58203125,26.3671875,50.29296875,-12.6953125,0.0,0
1586284430.8500311,1,1,315.91796875,10.25390625,35.64453125,-74.70703125,0.0,0
1586284430.8539374,1,1,583.984375,18.06640625,40.52734375,36.62109375,0.0,0
1586284430.8578436,1,1,927.734375,31.73828125,51.26953125,171.38671875,0.0,0
1586284430.86175,1,1,920.41015625,27.83203125,54.6875,150.390625,0.0,0
1586284430.8656561,1,1,538.0859375,36.62109375,53.7109375,15.625,0.0,0
1586284430.8695624,1,1,278.3203125,42.96875,37.109375,-68.359375,0.0,0
1586284430.8734686,1,1,504.8828125,43.9453125,42.96875,29.78515625,0.0,0
1586284430.877375,1,1,876.46484375,39.55078125,52.734375,171.875,0.0,0
1586284430.8812811,1,1,879.8828125,16.11328125,35.64453125,125.9765625,0.0,0
1586284430.8851874,1,1,527.83203125,27.34375,41.50390625,-7.8125,0.0,0
1586284430.8890936,1,1,262.6953125,47.8515625,51.7578125,-69.82421875,0.0,0
1586284430.893,1,1,434.5703125,43.45703125,48.33984375,9.27734375,0.0,0
1586284430.8969061,1,1,822.265625,41.9921875,35.64453125,144.53125,0.0,0
1586284430.9008124,1,1,908.203125,45.8984375,45.41015625,177.24609375,0.0,0
1586284430.9047186,1,1,589.35546875,54.19921875,70.80078125,72.75390625,0.0,0
1586284430.908625,1,1,283.203125,49.8046875,67.3828125,-52.734375,0.0,0
1586284430.9125311,1,1,413.0859375,37.59765625,65.91796875,3.41796875,0.0,0
1586284430.9164374,1,1,800.29296875,39.55078125,61.5234375,160.64453125,0.0,0
1586284430.9203436,1,1,932.12890625,58.59375,61.03515625,214.35546875,0.0,0
1586284430.92425,1,1,637.6953125,59.08203125,53.22265625,81.54296875,0.0,0
1586284430.9281561,1,1,297.8515625,51.26953125,47.36328125,-52.734375,0.0,0
1586284430.9320624,1,1,350.09765625,53.7109375,58.59375,-13.18359375,0.0,0
1586284430.9359686,1,1,707.03125,50.78125,59.08203125,124.51171875,0.0,0
1586284430.939875,1,1,883.7890625,41.50390625,52.734375,180.17578125,0.0,0
1586284430.9437811,1,1,626.953125,41.50390625,62.01171875,72.75390625,0.0,0
1586284430.9476874,1,1,251.46484375,38.57421875,62.01171875,-65.91796875,0.0,0
1586284430.9515936,1,1,259.27734375,25.390625,54.19921875,-54.6875,0.0,0
1586284430.9555,1,1,617.1875,31.25,49.8046875,81.54296875,0.0,0
1586284430.9594061,1,1,840.8203125,41.015625,58.10546875,162.59765625,0.0,0
1586284430.9633124,1,1,644.53125,48.828125,69.82421875,87.40234375,0.0,0
1586284430.9672186,1,1,271.97265625,62.5,79.1015625,-43.45703125,0.0,0
1586284430.971125,1,1,201.66015625,45.41015625,62.01171875,-92.28515625,0.0,0
1586284430.9750311,1,1,548.33984375,43.45703125,58.59375,53.7109375,0.0,0
1586284430.9789374,1,1,835.44921875,51.7578125,75.1953125,188.96484375,0.0,0
1586284430.9828436,1,1,685.546875,41.9921875,80.078125,121.09375,0.0,0
1586284430.98675,1,1,292.96875,45.41015625,70.80078125,-23.92578125,0.0,0
1586284430.9906561,1,1,171.38671875,49.31640625,63.4765625,-49.31640625,0.0,0
1586284430.9945624,1,1,489.2578125,46.875,65.4296875,91.796875,0.0,0
1586284430.9984686,1,1,792.48046875,43.9453125,52.734375,200.68359375,0.0,0
1586284431.002375,1,1,680.6640625,39.0625,42.48046875,136.23046875,0.0,0
1586284431.0062811,1,1,306.15234375,52.734375,49.31640625,-0.48828125,0.0,0
1586284431.0101874,1,1,157.2265625,70.80078125,59.5703125,-29.296875,0.0,0
1586284431.0140936,1,1,402.83203125,55.17578125,50.78125,47.36328125,0.0,0
1586284431.018,1,1,714.84375,35.15625,40.0390625,143.5546875,0.0,0
1586284431.0219061,1,1,681.15234375,41.9921875,50.78125,141.6015625,0.0,0
1586284431.0258124,1,1,313.96484375,52.734375,57.12890625,-1.46484375,0.0,0
1586284431.0297186,1,1,96.19140625,46.875,44.43359375,-95.21484375,0.0,0
1586284431.033625,1,1,329.1015625,43.9453125,53.7109375,15.13671875,0.0,0
1586284431.0375311,1,1,690.91796875,52.24609375,68.84765625,186.03515625,0.0,0
1586284431.0414374,1,1,676.26953125,60.546875,66.89453125,175.29296875,0.0,0
1586284431.0453436,1,1,313.96484375,58.10546875,60.546875,29.296875,0.0,0
1586284431.04925,1,1,42.96875,54.19921875,55.6640625,-64.94140625,0.0,0
1586284431.0531561,1,1,215.33203125,62.98828125,68.84765625,23.4375,0.0,0
1586284431.0570624,1,1,560.05859375,63.4765625,71.77734375,176.7578125,0.0,0
1586284431.0609686,1,1,589.84375,48.33984375,49.8046875,153.80859375,0.0,0
1586284431.064875,1,1,264.16015625,56.15234375,56.640625,16.11328125,0.0,0
1586284431.0687811,1,1,-26.85546875,67.87109375,65.91796875,-67.87109375,0.0,0
1586284431.0726874,1,1,86.42578125,57.6171875,62.01171875,-13.18359375,0.0,0
1586284431.0765936,1,1,456.0546875,58.10546875,61.03515625,123.53515625,0.0,0
1586284431.0805,1,1,570.3125,67.87109375,61.5234375,164.55078125,0.0,0
1586284431.0844061,1,1,253.90625,58.10546875,59.08203125,39.55078125,0.0,0
1586284431.0883124,1,1,-84.9609375,56.15234375,54.19921875,-98.6328125,0.0,0
1586284431.0922186,1,1,-11.23046875,67.87109375,62.5,-62.5,0.0,0
1586284431.096125,1,1,358.88671875,62.98828125,58.59375,83.0078125,0.0,0
1586284431.1000311,1,1,539.55078125,75.68359375,56.640625,164.55078125,0.0,0
1586284431.1039374,1,1,270.99609375,72.75390625,59.5703125,59.08203125,0.0,0
1586284431.1078436,1,1,-91.796875,40.52734375,55.17578125,-101.5625,0.0,0
1586284431.11175,1,1,-60.546875,45.8984375,42.96875,-76.66015625,0.0,0
1586284431.1156561,1,1,300.29296875,81.0546875,50.78125,99.609375,0.0,0
1586284431.1195624,1,1,492.1875,73.2421875,41.9921875,150.87890625,0.0,0
1586284431.1234686,1,1,267.08984375,52.24609375,33.69140625,39.55078125,0.0,0
1586284431.127375,1,1,-111.328125,52.24609375,28.3203125,-92.7734375,0.0,0
1586284431.1312811,1,1,-147.4609375,50.29296875,22.4609375,-90.33203125,0.0,0
1586284431.1351874,1,1,194.82421875,43.9453125,27.83203125,41.9921875,0.0,0
1586284431.1390936,1,1,457.03125,35.15625,34.1796875,131.8359375,0.0,0
1586284431.143,1,1,298.828125,37.109375,56.15234375,79.1015625,0.0,0
1586284431.1469061,1,1,-87.40234375,52.734375,58.10546875,-51.7578125,0.0,0
1586284431.1508124,1,1,-187.01171875,59.08203125,30.2734375,-85.9375,0.0,0
1586284431.1547186,1,1,129.8828125,52.24609375,20.01953125,38.0859375,0.0,0
1586284431.158625,1,1,442.3828125,54.6875,43.9453125,163.57421875,0.0,0
1586284431.1625311,1,1,327.1484375,61.03515625,60.05859375,132.32421875,0.0,0
1586284431.1664374,1,1,-72.265625,47.8515625,40.52734375,-50.29296875,0.0,0
1586284431.1703436,1,1,-212.40234375,47.36328125,32.71484375,-106.93359375,0.0,0
1586284431.17425,1,1,86.9140625,43.9453125,43.9453125,34.1796875,0.0,0
1586284431.1781561,1,1,419.921875,31.73828125,45.41015625,149.90234375,0.0,0
1586284431.1820624,1,1,356.4453125,52.734375,44.921875,114.74609375,0.0,0
1586284431.1859686,1,1,-14.16015625,70.80078125,38.57421875,-31.73828125,0.0,0
1586284431.189875,1,1,-188.96484375,70.3125,33.203125,-98.14453125,0.0,0
1586284431.1937811,1,1,40.52734375,59.5703125,41.9921875,6.34765625,0.0,0
1586284431.1976874,1,1,365.234375,49.8046875,38.57421875,120.1171875,0.0,0
1586284431.2015936,1,1,367.67578125,54.19921875,37.59765625,105.46875,0.0,0
1586284431.2055,1,1,41.015625,58.10546875,51.7578125,-4.39453125,0.0,0
1586284431.2094061,1,1,-210.44921875,52.24609375,38.0859375,-116.69921875,0.0,0
1586284431.2133124,1,1,-18.06640625,44.921875,30.76171875,-49.31640625,0.0,0
1586284431.2172186,1,1,359.375,36.1328125,42.96875,116.2109375,0.0,0
1586284431.221125,1,1,403.80859375,35.15625,48.33984375,129.8828125,0.0,0
1586284431.2250311,1,1,61.03515625,48.33984375,42.48046875,-13.18359375,0.0,0
1586284431.2289374,1,1,-230.46875,50.78125,37.59765625,-119.140625,0.0,0
1586284431.2328436,1,1,-69.82421875,43.9453125,43.45703125,-35.64453125,0.0,0
1586284431.23675,1,1,319.82421875,45.8984375,40.52734375,105.46875,0.0,0
1586284431.2406561,1,1,397.4609375,62.01171875,41.9921875,126.953125,0.0,0
1586284431.2445624,1,1,110.83984375,60.05859375,41.50390625,7.32421875,0.0,0
1586284431.2484686,1,1,-178.22265625,51.26953125,36.62109375,-103.515625,0.0,0
1586284431.252375,1,1,-94.7265625,34.66796875,41.015625,-42.48046875,0.0,0
1586284431.2562811,1,1,273.92578125,17.08984375,27.83203125,73.73046875,0.0,0
1586284431.2601874,1,1,443.359375,41.9921875,37.59765625,122.55859375,0.0,0
1586284431.2640936,1,1,180.6640625,54.6875,47.36328125,32.2265625,0.0,0
1586284431.268,1,1,-148.4375,45.41015625,44.921875,-104.4921875,0.0,0
1586284431.2719061,1,1,-92.7734375,42.96875,44.921875,-85.9375,0.0,0
1586284431.2758124,1,1,278.3203125,46.38671875,51.7578125,68.359375,0.0,0
1586284431.2797186,1,1,500.9765625,45.41015625,55.17578125,149.4140625,0.0,0
1586284431.283625,1,1,280.2734375,32.71484375,49.8046875,40.0390625,0.0,0
1586284431.2875311,1,1,-80.56640625,40.0390625,51.7578125,-99.12109375,0.0,0
1586284431.2914374,1,1,-85.44921875,46.38671875,48.33984375,-80.078125,0.0,0
1586284431.2953436,1,1,269.04296875,42.48046875,54.19921875,79.58984375,0.0,0
1586284431.29925,1,1,493.1640625,27.83203125,38.57421875,140.625,0.0,0
1586284431.3031561,1,1,296.875,26.85546875,33.69140625,37.59765625,0.0,0
1586284431.3070624,1,1,-62.98828125,39.55078125,50.78125,-88.8671875,0.0,0
1586284431.3109686,1,1,-123.046875,39.0625,52.734375,-96.6796875,0.0,0
1586284431.314875,1,1,203.125,40.52734375,42.96875,23.92578125,0.0,0
1586284431.3187811,1,1,489.74609375,40.52734375,36.62109375,125.0,0.0,0
1586284431.3226874,1,1,371.58203125,43.45703125,41.015625,77.63671875,0.0,0
1586284431.3265936,1,1,-5.859375,43.9453125,42.96875,-73.73046875,0.0,0
1586284431.3305,1,1,-129.39453125,43.9453125,37.109375,-114.2578125,0.0,0
1586284431.3344061,1,1,169.43359375,41.9921875,30.2734375,9.27734375,0.0,0
1586284431.3383124,1,1,489.2578125,45.41015625,42.96875,145.99609375,0.0,0
1586284431.3422186,1,1,415.0390625,55.17578125,63.4765625,116.69921875,0.0,0
1586284431.346125,1,1,34.1796875,40.0390625,41.015625,-74.70703125,0.0,0
1586284431.3500311,1,1,-119.62890625,34.66796875,39.55078125,-132.8125,0.0,0
1586284431.3539374,1,1,137.6953125,50.78125,50.78125,-1.953125,0.0,0
1586284431.3578436,1,1,456.0546875,47.36328125,43.45703125,112.79296875,0.0,0
1586284431.36175,1,1,425.78125,31.25,44.43359375,70.80078125,0.0,0
1586284431.3656561,1,1,74.70703125,34.66796875,57.12890625,-61.03515625,0.0,0
1586284431.3695624,1,1,-131.34765625,45.41015625,70.80078125,-109.375,0.0,0
1586284431.3734686,1,1,73.2421875,41.015625,68.359375,-27.34375,0.0,0
1586284431.377375,1,1,417.96875,28.3203125,58.59375,85.44921875,0.0,0
1586284431.3812811,1,1,454.58984375,28.80859375,62.98828125,96.19140625,0.0,0
1586284431.3851874,1,1,131.34765625,39.55078125,79.58984375,-20.99609375,0.0,0
1586284431.3890936,1,1,-141.6015625,20.99609375,60.546875,-147.4609375,0.0,0
1586284431.393,1,1,10.25390625,17.578125,46.38671875,-100.5859375,0.0,0
1586284431.3969061,1,1,398.92578125,40.52734375,60.05859375,74.21875,0.0,0
1586284431.4008124,1,1,479.00390625,41.50390625,65.4296875,120.1171875,0.0,0
1586284431.4047186,1,1,152.34375,24.90234375,59.5703125,-16.11328125,0.0,0
1586284431.408625,1,1,-129.39453125,32.2265625,57.6171875,-123.53515625,0.0,0
1586284431.4125311,1,1,-3.41796875,44.921875,63.4765625,-53.22265625,0.0,0
1586284431.4164374,1,1,359.86328125,34.1796875,55.17578125,99.12109375,0.0,0
1586284431.4203436,1,1,477.5390625,24.4140625,38.57421875,129.39453125,0.0,0
1586284431.42425,1,1,197.75390625,25.390625,35.15625,-0.9765625,0.0,0
1586284431.4281561,1,1,-113.76953125,32.2265625,49.31640625,-102.5390625,0.0,0
1586284431.4320624,1,1,-62.98828125,35.15625,46.38671875,-65.91796875,0.0,0
1586284431.4359686,1,1,293.45703125,29.296875,28.3203125,38.57421875,0.0,0
1586284431.439875,1,1,498.046875,40.0390625,42.48046875,113.76953125,0.0,0
1586284431.4437811,1,1,268.06640625,46.38671875,47.8515625,28.3203125,0.0,0
1586284431.4476874,1,1,-94.23828125,34.1796875,23.92578125,-121.09375,0.0,0
1586284431.4515936,1,1,-96.19140625,30.2734375,22.4609375,-110.83984375,0.0,0
1586284431.4555,1,1,266.11328125,24.90234375,36.1328125,47.36328125,0.0,0
1586284431.4594061,1,1,504.39453125,19.04296875,32.71484375,143.06640625,0.0,0
1586284431.4633124,1,1,319.3359375,31.73828125,26.3671875,53.22265625,0.0,0
1586284431.4672186,1,1,-33.69140625,45.8984375,30.2734375,-94.23828125,0.0,0
1586284431.471125,1,1,-66.40625,44.43359375,36.62109375,-101.07421875,0.0,0
1586284431.4750311,1,1,287.59765625,49.31640625,57.12890625,59.08203125,0.0,0
1586284431.4789374,1,1,561.03515625,43.9453125,46.38671875,153.80859375,0.0,0
1586284431.4828436,1,1,434.5703125,27.83203125,24.90234375,73.2421875,0.0,0
1586284431.48675,1,1,102.5390625,26.3671875,43.9453125,-67.3828125,0.0,0
1586284431.4906561,1,1,33.69140625,33.203125,58.59375,-76.66015625,0.0,0
1586284431.4945624,1,1,329.1015625,13.18359375,23.4375,14.6484375,0.0,0
1586284431.4984686,1,1,660.64453125,16.6015625,9.765625,125.0,0.0,0
1586284431.502375,1,1,625.9765625,48.828125,43.45703125,124.0234375,0.0,0
1586284431.5062811,1,1,269.04296875,43.45703125,50.78125,-27.34375,0.0,0
1586284431.5101874,1,1,124.51171875,26.85546875,38.57421875,-90.8203125,0.0,0
1586284431.5140936,1,1,402.34375,27.34375,40.52734375,34.1796875,0.0,0
1586284431.518,1,1,747.55859375,35.15625,44.921875,178.7109375,0.0,0
1586284431.5219061,1,1,726.07421875,41.9921875,47.36328125,158.203125,0.0,0
1586284431.5258124,1,1,380.37109375,36.62109375,52.24609375,-3.90625,0.0,0
1586284431.5297186,1,1,172.8515625,24.4140625,48.33984375,-105.95703125,0.0,0
1586284431.533625,1,1,402.34375,28.3203125,53.7109375,4.39453125,0.0,0
1586284431.5375311,1,1,761.71875,37.59765625,59.5703125,160.15625,0.0,0
1586284431.5414374,1,1,757.32421875,24.90234375,43.45703125,125.0,0.0,0
1586284431.5453436,1,1,421.875,23.4375,46.875,-13.671875,0.0,0
1586284431.54925,1,1,188.4765625,36.1328125,49.8046875,-96.19140625,0.0,0
1586284431.5531561,1,1,347.65625,41.9921875,35.64453125,-36.62109375,0.0,0
1586284431.5570624,1,1,697.75390625,38.57421875,38.0859375,108.3984375,0.0,0
1586284431.5609686,1,1,765.13671875,31.73828125,48.828125,148.92578125,0.0,0
1586284431.564875,1,1,446.2890625,26.3671875,42.96875,14.6484375,0.0,0
1586284431.5687811,1,1,161.1328125,34.1796875,44.43359375,-91.796875,0.0,0
1586284431.5726874,1,1,262.6953125,36.1328125,48.33984375,-40.0390625,0.0,0
1586284431.5765936,1,1,624.51171875,36.1328125,48.33984375,99.12109375,0.0,0
1586284431.5805,1,1,757.8125,50.29296875,67.3828125,168.9453125,0.0,0
1586284431.5844061,1,1,453.61328125,40.0390625,58.59375,24.90234375,0.0,0
1586284431.5883124,1,1,129.39453125,26.85546875,42.48046875,-117.1875,0.0,0
1586284431.5922186,1,1,203.61328125,36.62109375,53.7109375,-57.12890625,0.0,0
1586284431.596125,1,1,546.38671875,40.52734375,52.24609375,87.890625,0.0,0
1586284431.6000311,1,1,699.21875,35.64453125,40.0390625,132.8125,0.0,0
1586284431.6039374,1,1,452.1484375,39.0625,41.50390625,21.484375,0.0,0
1586284431.6078436,1,1,118.65234375,42.48046875,54.19921875,-98.14453125,0.0,0
1586284431.61175,1,1,117.67578125,32.2265625,54.19921875,-86.9140625,0.0,0
1586284431.6156561,1,1,451.66015625,29.296875,56.640625,53.22265625,0.0,0
1586284431.6195624,1,1,664.55078125,36.1328125,56.15234375,133.7890625,0.0,0
1586284431.6234686,1,1,450.68359375,41.9921875,58.59375,58.59375,0.0,0
1586284431.627375,1,1,81.0546875,44.921875,65.91796875,-69.82421875,0.0,0
1586284431.6312811,1,1,36.1328125,29.296875,49.8046875,-108.88671875,0.0,0
1586284431.6351874,1,1,361.81640625,32.71484375,44.921875,29.78515625,0.0,0
1586284431.6390936,1,1,605.95703125,41.9921875,50.29296875,139.16015625,0.0,0
1586284431.643,1,1,458.0078125,39.55078125,46.875,67.87109375,0.0,0
1586284431.6469061,1,1,105.46875,36.1328125,38.0859375,-92.28515625,0.0,0
1586284431.6508124,1,1,14.6484375,35.15625,41.50390625,-118.65234375,0.0,0
1586284431.6547186,1,1,307.12890625,37.59765625,50.29296875,27.34375,0.0,0
1586284431.658625,1,1,578.125,33.69140625,38.57421875,115.72265625,0.0,0
1586284431.6625311,1,1,479.00390625,40.52734375,43.9453125,67.87109375,0.0,0
1586284431.6664374,1,1,121.58203125,49.8046875,59.5703125,-60.05859375,0.0,0
1586284431.6703436,1,1,-26.3671875,46.875,65.4296875,-96.6796875,0.0,0
1586284431.67425,1,1,223.6328125,36.1328125,47.36328125,-5.859375,0.0,0
1586284431.6781561,1,1,531.73828125,25.87890625,23.4375,102.05078125,0.0,0
1586284431.6820624,1,1,493.65234375,32.71484375,34.66796875,99.12109375,0.0,0
1586284431.6859686,1,1,141.6015625,42.48046875,46.38671875,-49.31640625,0.0,0
1586284431.689875,1,1,-57.12890625,34.66796875,35.64453125,-131.34765625,0.0,0
1586284431.6937811,1,1,166.50390625,30.2734375,44.921875,-18.06640625,0.0,0
1586284431.6976874,1,1,507.32421875,38.0859375,55.6640625,131.8359375,0.0,0
1586284431.7015936,1,1,500.0,44.43359375,44.921875,108.88671875,0.0,0
1586284431.7055,1,1,157.71484375,50.29296875,48.828125,-34.66796875,0.0,0
1586284431.7094061,1,1,-66.89453125,60.05859375,64.453125,-102.5390625,0.0,0
1586284431.7133124,1,1,107.91015625,62.5,61.03515625,-16.6015625,0.0,0
1586284431.7172186,1,1,445.3125,48.33984375,60.05859375,122.55859375,0.0,0
1586284431.721125,1,1,480.46875,31.73828125,44.43359375,97.16796875,0.0,0
1586284431.7250311,1,1,170.8984375,47.8515625,32.71484375,-44.43359375,0.0,0
1586284431.7289374,1,1,-85.9375,55.6640625,38.0859375,-123.046875,0.0,0
1586284431.7328436,1,1,29.296875,36.62109375,44.43359375,-61.5234375,0.0,0
1586284431.73675,1,1,372.0703125,25.87890625,42.48046875,58.59375,0.0,0
1586284431.7406561,1,1,484.375,31.25,40.0390625,93.26171875,0.0,0
1586284431.7445624,1,1,202.63671875,53.22265625,51.26953125,7.32421875,0.0,0
1586284431.7484686,1,1,-115.72265625,53.22265625,41.015625,-113.76953125,0.0,0
1586284431.752375,1,1,-52.734375,38.57421875,27.34375,-86.42578125,0.0,0
1586284431.7562811,1,1,307.12890625,38.0859375,46.38671875,82.51953125,0.0,0
1586284431.7601874,1,1,471.6796875,42.48046875,64.94140625,166.015625,0.0,0
1586284431.7640936,1,1,212.40234375,36.62109375,51.7578125,42.48046875,0.0,0
1586284431.768,1,1,-122.0703125,28.3203125,29.78515625,-116.69921875,0.0,0
1586284431.7719061,1,1,-78.125,35.64453125,38.57421875,-68.84765625,0.0,0
1586284431.7758124,1,1,259.27734375,35.64453125,46.875,89.84375,0.0,0
1586284431.7797186,1,1,440.4296875,15.625,31.25,146.97265625,0.0,0
1586284431.783625,1,1,232.91015625,15.625,29.296875,55.6640625,0.0,0
1586284431.7875311,1,1,-104.98046875,35.15625,37.109375,-76.171875,0.0,0
1586284431.7914374,1,1,-130.37109375,36.62109375,31.25,-83.49609375,0.0,0
1586284431.7953436,1,1,192.3828125,30.76171875,33.69140625,44.43359375,0.0,0
1586284431.79925,1,1,434.5703125,35.15625,35.15625,134.765625,0.0,0
1586284431.8031561,1,1,283.203125,50.29296875,46.38671875,92.28515625,0.0,0
1586284431.8070624,1,1,-73.2421875,58.10546875,53.22265625,-34.66796875,0.0,0
1586284431.8109686,1,1,-176.7578125,35.15625,28.3203125,-106.93359375,0.0,0
1586284431.814875,1,1,127.44140625,34.66796875,31.73828125,31.73828125,0.0,0
1586284431.8187811,1,1,410.64453125,39.55078125,41.9921875,170.41015625,0.0,0
1586284431.8226874,1,1,295.8984375,32.2265625,35.15625,106.93359375,0.0,0
1586284431.8265936,1,1,-54.19921875,41.015625,40.52734375,-44.921875,0.0,0
1586284431.8305,2,1,-177.734375,39.0625,42.96875,-91.30859375,0.0,0
1586284431.8344061,2,1,95.703125,38.57421875,40.52734375,33.69140625,0.0,0
1586284431.8383124,2,1,397.4609375,43.45703125,45.8984375,156.73828125,0.0,0
1586284431.8422186,2,1,347.65625,47.36328125,55.17578125,125.9765625,0.0,0
1586284431.846125,2,1,-1.46484375,45.8984375,51.26953125,-27.83203125,0.0,0
1586284431.8500311,2,1,-171.38671875,54.6875,60.05859375,-73.2421875,0.0,0
1586284431.8539374,2,1,42.96875,50.29296875,47.8515625,10.7421875,0.0,0
1586284431.8578436,2,1,346.6796875,33.69140625,23.4375,107.421875,0.0,0
1586284431.86175,2,1,344.23828125,33.69140625,33.203125,111.81640625,0.0,0
1586284431.8656561,2,1,12.6953125,48.828125,68.84765625,11.71875,0.0,0
1586284431.8695624,2,1,-222.65625,35.15625,62.5,-90.8203125,0.0,0
1586284431.8734686,2,1,-40.52734375,26.3671875,41.50390625,-25.390625,0.0,0
1586284431.877375,2,1,303.22265625,27.83203125,40.0390625,116.69921875,0.0,0
1586284431.8812811,2,1,339.84375,18.06640625,36.1328125,122.0703125,0.0,0
1586284431.8851874,2,1,22.4609375,16.11328125,25.390625,-9.765625,0.0,0
1586284431.8890936,2,1,-224.12109375,25.87890625,32.2265625,-108.3984375,0.0,0
1586284431.893,2,1,-68.84765625,41.50390625,52.24609375,-23.92578125,0.0,0
1586284431.8969061,2,1,277.34375,52.24609375,52.734375,129.8828125,0.0,0
1586284431.9008124,2,1,349.609375,39.0625,41.50390625,139.16015625,0.0,0
1586284431.9047186,2,1,61.03515625,23.4375,40.0390625,6.34765625,0.0,0
1586284431.908625,2,1,-205.56640625,33.69140625,45.8984375,-80.56640625,0.0,0
1586284431.9125311,2,1,-106.4453125,40.52734375,57.12890625,-16.6015625,0.0,0
1586284431.9164374,2,1,229.00390625,17.08984375,38.57421875,82.51953125,0.0,0
1586284431.9203436,2,1,372.0703125,10.7421875,24.4140625,124.0234375,0.0,0
1586284431.92425,2,1,126.46484375,30.2734375,39.0625,32.2265625,0.0,0
1586284431.9281561,2,1,-195.80078125,31.25,43.45703125,-104.4921875,0.0,0
1586284431.9320624,2,1,-150.87890625,26.3671875,42.48046875,-83.984375,0.0,0
1586284431.9359686,2,1,200.1953125,37.109375,48.828125,75.68359375,0.0,0
1586284431.939875,2,1,370.1171875,43.9453125,42.48046875,155.76171875,0.0,0
1586284431.9437811,2,1,150.87890625,36.1328125,41.50390625,55.6640625,0.0,0
1586284431.9476874,2,1,-181.15234375,21.484375,36.1328125,-91.796875,0.0,0
1586284431.9515936,2,1,-196.2890625,15.13671875,33.69140625,-80.56640625,0.0,0
1586284431.9555,2,1,141.6015625,35.64453125,60.546875,91.796875,0.0,0
1586284431.9594061,2,1,352.5390625,39.0625,53.22265625,146.484375,0.0,0
1586284431.9633124,2,1,176.26953125,28.3203125,41.015625,46.38671875,0.0,0
1586284431.9672186,2,1,-150.87890625,36.1328125,51.7578125,-69.82421875,0.0,0
1586284431.971125,2,1,-227.5390625,34.66796875,48.33984375,-88.37890625,0.0,0
1586284431.9750311,2,1,64.94140625,30.76171875,37.109375,28.3203125,0.0,0
1586284431.9789374,2,1,341.796875,29.296875,35.15625,140.625,0.0,0
1586284431.9828436,2,1,225.09765625,31.73828125,49.8046875,85.44921875,0.0,0
1586284431.98675,2,1,-135.25390625,32.2265625,55.17578125,-65.91796875,0.0,0
1586284431.9906561,2,1,-231.4453125,27.34375,52.734375,-85.9375,0.0,0
1586284431.9945624,2,1,30.2734375,25.390625,45.41015625,20.99609375,0.0,0
1586284431.9984686,2,1,326.171875,23.92578125,45.8984375,135.25390625,0.0,0
1586284432.002375,2,1,260.25390625,25.87890625,57.6171875,107.421875,0.0,0
1586284432.0062811,2,1,-112.3046875,18.5546875,39.55078125,-69.82421875,0.0,0
1586284432.0101874,2,1,-259.27734375,24.90234375,38.57421875,-124.51171875,0.0,0
1586284432.0140936,2,1,-6.8359375,36.1328125,43.9453125,-1.46484375,0.0,0
1586284432.018,2,1,301.7578125,24.4140625,26.85546875,110.83984375,0.0,0
1586284432.0219061,2,1,272.4609375,25.390625,12.6953125,80.078125,0.0,0
1586284432.0258124,2,1,-53.7109375,36.1328125,35.15625,-43.45703125,0.0,0
1586284432.0297186,2,1,-252.44140625,37.109375,58.59375,-93.75,0.0,0
1586284432.033625,2,1,-49.31640625,30.76171875,49.31640625,-5.859375,0.0,0
1586284432.0375311,2,1,299.8046875,39.55078125,46.38671875,133.7890625,0.0,0
1586284432.0414374,2,1,314.453125,44.43359375,46.38671875,144.04296875,0.0,0
1586284432.0453436,2,1,-7.8125,41.015625,51.7578125,21.97265625,0.0,0
1586284432.04925,2,1,-274.4140625,35.15625,33.69140625,-94.23828125,0.0,0
1586284432.0531561,2,1,-128.41796875,29.296875,19.53125,-53.22265625,0.0,0
1586284432.0570624,2,1,231.93359375,34.1796875,30.76171875,86.9140625,0.0,0
1586284432.0609686,2,1,308.10546875,37.109375,37.109375,108.3984375,0.0,0
1586284432.064875,2,1,15.13671875,27.34375,33.203125,-15.13671875,0.0,0
1586284432.0687811,2,1,-250.9765625,24.90234375,34.66796875,-113.28125,0.0,0
1586284432.0726874,2,1,-146.97265625,30.76171875,39.0625,-49.8046875,0.0,0
1586284432.0765936,2,1,195.3125,30.2734375,34.66796875,97.65625,0.0,0
1586284432.0805,2,1,335.44921875,33.203125,39.55078125,139.6484375,0.0,0
1586284432.0844061,2,1,81.0546875,41.9921875,47.8515625,32.2265625,0.0,0
1586284432.0883124,2,1,-233.3984375,49.31640625,51.7578125,-76.171875,0.0,0
1586284432.0922186,2,1,-185.546875,58.59375,55.6640625,-42.48046875,0.0,0
1586284432.096125,2,1,145.5078125,44.921875,40.0390625,62.5,0.0,0
1586284432.1000311,2,1,331.54296875,32.2265625,41.9921875,127.44140625,0.0,0
1586284432.1039374,2,1,120.60546875,37.59765625,47.8515625,54.6875,0.0,0
1586284432.1078436,2,1,-211.42578125,34.66796875,41.015625,-89.35546875,0.0,0
1586284432.11175,2,1,-202.63671875,22.94921875,39.55078125,-83.49609375,0.0,0
1586284432.1156561,2,1,126.46484375,20.99609375,33.69140625,56.15234375,0.0,0
1586284432.1195624,2,1,330.56640625,40.52734375,40.52734375,149.4140625,0.0,0
1586284432.1234686,2,1,149.4140625,51.7578125,42.96875,62.5,0.0,0
1586284432.127375,2,1,-204.1015625,44.921875,33.69140625,-92.7734375,0.0,0
1586284432.1312811,2,1,-260.25390625,41.015625,39.55078125,-95.703125,0.0,0
1586284432.1351874,2,1,64.453125,46.875,48.33984375,56.15234375,0.0,0
1586284432.1390936,2,1,307.6171875,40.0390625,34.1796875,139.16015625,0.0,0
1586284432.143,2,1,172.8515625,28.3203125,30.76171875,62.01171875,0.0,0
1586284432.1469061,2,1,-164.55078125,32.71484375,34.66796875,-72.75390625,0.0,0
1586284432.1508124,2,1,-263.18359375,35.64453125,31.25,-111.81640625,0.0,0
1586284432.1547186,2,1,17.578125,29.296875,29.78515625,-1.953125,0.0,0
1586284432.158625,2,1,301.26953125,24.90234375,29.296875,117.67578125,0.0,0
1586284432.1625311,2,1,234.86328125,39.55078125,40.0390625,96.19140625,0.0,0
1586284432.1664374,2,1,-99.609375,47.8515625,39.55078125,-52.734375,0.0,0
1586284432.1703436,2,1,-255.859375,46.38671875,25.390625,-105.46875,0.0,0
1586284432.17425,2,1,-21.484375,51.26953125,16.6015625,7.32421875,0.0,0
1586284432.1781561,2,1,295.8984375,45.8984375,35.15625,145.01953125,0.0,0
1586284432.1820624,2,1,270.01953125,45.8984375,57.6171875,148.4375,0.0,0
1586284432.1859686,2,1,-82.51953125,31.25,35.64453125,-39.55078125,0.0,0
1586284432.189875,2,1,-272.94921875,25.390625,24.90234375,-126.953125,0.0,0
1586284432.1937811,2,1,-51.7578125,32.2265625,32.2265625,-9.27734375,0.0,0
1586284432.1976874,2,1,269.04296875,32.2265625,21.484375,119.62890625,0.0,0
1586284432.2015936,2,1,283.69140625,33.69140625,10.7421875,111.81640625,0.0,0
1586284432.2055,2,1,-27.34375,40.52734375,27.34375,-16.6015625,0.0,0
1586284432.2094061,2,1,-273.4375,36.1328125,34.1796875,-100.5859375,0.0,0
1586284432.2133124,2,1,-111.328125,28.80859375,21.97265625,-26.3671875,0.0,0
1586284432.2172186,2,1,231.4453125,37.109375,19.04296875,120.1171875,0.0,0
1586284432.221125,2,1,289.0625,37.109375,16.11328125,132.32421875,0.0,0
1586284432.2250311,2,1,9.765625,39.55078125,29.296875,14.16015625,0.0,0
1586284432.2289374,2,1,-261.71875,27.34375,25.390625,-104.00390625,0.0,0
1586284432.2328436,2,1,-158.203125,18.06640625,17.08984375,-68.84765625,0.0,0
1586284432.23675,2,1,188.4765625,35.15625,19.04296875,91.796875,0.0,0
1586284432.2406561,2,1,315.4296875,50.78125,36.62109375,165.0390625,0.0,0
1586284432.2445624,2,1,25.87890625,42.48046875,29.78515625,19.53125,0.0,0
1586284432.2484686,2,1,-276.3671875,41.9921875,14.16015625,-120.1171875,0.0,0
1586284432.252375,2,1,-179.19921875,45.41015625,25.87890625,-61.03515625,0.0,0
1586284432.2562811,2,1,163.0859375,41.50390625,35.15625,87.890625,0.0,0
1586284432.2601874,2,1,315.91796875,41.015625,21.97265625,149.90234375,0.0,0
1586284432.2640936,2,1,90.33203125,41.50390625,14.16015625,42.48046875,0.0,0
1586284432.268,2,1,-220.703125,41.9921875,28.3203125,-95.21484375,0.0,0
1586284432.2719061,2,1,-202.63671875,38.57421875,41.015625,-68.359375,0.0,0
1586284432.2758124,2,1,113.28125,36.1328125,34.66796875,68.84765625,0.0,0
1586284432.2797186,2,1,320.80078125,35.15625,23.92578125,128.90625,0.0,0
1586284432.283625,2,1,144.53125,40.0390625,32.71484375,63.4765625,0.0,0
1586284432.2875311,2,1,-191.40625,52.24609375,42.96875,-44.43359375,0.0,0
1586284432.2914374,2,1,-245.60546875,43.9453125,25.390625,-95.703125,0.0,0
1586284432.2953436,2,1,58.10546875,26.85546875,13.671875,19.04296875,0.0,0
1586284432.29925,2,1,314.453125,30.2734375,18.5546875,139.6484375,0.0,0
1586284432.3031561,2,1,157.71484375,30.76171875,23.92578125,60.05859375,0.0,0
1586284432.3070624,2,1,-194.3359375,26.85546875,32.2265625,-81.0546875,0.0,0
1586284432.3109686,2,1,-273.92578125,32.71484375,31.25,-92.28515625,0.0,0
1586284432.314875,2,1,9.27734375,38.0859375,25.87890625,36.62109375,0.0,0
1586284432.3187811,2,1,293.45703125,36.62109375,23.92578125,147.4609375,0.0,0
1586284432.3226874,2,1,193.359375,23.4375,21.484375,86.9140625,0.0,0
1586284432.3265936,2,1,-151.3671875,27.34375,20.5078125,-64.453125,0.0,0
1586284432.3305,2,1,-271.97265625,49.8046875,30.2734375,-86.42578125,0.0,0
1586284432.3344061,2,1,-43.45703125,32.2265625,22.94921875,-5.859375,0.0,0
1586284432.3383124,2,1,252.9296875,15.625,12.20703125,91.796875,0.0,0
1586284432.3422186,2,1,229.98046875,29.78515625,25.390625,88.37890625,0.0,0
1586284432.346125,2,1,-111.328125,31.73828125,35.15625,-52.24609375,0.0,0
1586284432.3500311,2,1,-299.31640625,24.4140625,33.69140625,-129.8828125,0.0,0
1586284432.3539374,2,1,-76.171875,24.90234375,26.3671875,-45.41015625,0.0,0
1586284432.3578436,2,1,251.46484375,29.78515625,26.85546875,99.12109375,0.0,0
1586284432.36175,2,1,244.140625,33.203125,34.1796875,101.5625,0.0,0
1586284432.3656561,2,1,-84.9609375,41.50390625,35.15625,-44.921875,0.0,0
1586284432.3695624,2,1,-283.69140625,34.1796875,24.90234375,-131.8359375,0.0,0
1586284432.3734686,2,1,-92.28515625,32.2265625,19.53125,-24.4140625,0.0,0
1586284432.377375,2,1,246.58203125,43.9453125,27.34375,132.8125,0.0,0
1586284432.3812811,2,1,276.85546875,30.2734375,14.6484375,110.83984375,0.0,0
1586284432.3851874,2,1,-25.87890625,33.203125,21.97265625,-20.01953125,0.0,0
1586284432.3890936,2,1,-269.04296875,47.36328125,43.45703125,-95.703125,0.0,0
1586284432.393,2,1,-161.62109375,40.0390625,29.78515625,-52.734375,0.0,0
1586284432.3969061,2,1,177.24609375,37.59765625,20.99609375,80.56640625,0.0,0
1586284432.4008124,2,1,302.734375,41.015625,25.87890625,137.6953125,0.0,0
1586284432.4047186,2,1,32.2265625,41.50390625,30.2734375,25.87890625,0.0,0
1586284432.408625,2,1,-264.6484375,35.15625,34.66796875,-113.76953125,0.0,0
1586284432.4125311,2,1,-186.03515625,23.92578125,35.15625,-78.125,0.0,0
1586284432.4164374,2,1,151.85546875,24.4140625,34.66796875,75.68359375,0.0,0
1586284432.4203436,2,1,309.5703125,34.66796875,39.55078125,154.296875,0.0,0
1586284432.42425,2,1,50.78125,28.80859375,23.4375,29.296875,0.0,0
1586284432.4281561,2,1,-277.83203125,20.99609375,7.8125,-130.37109375,0.0,0
1586284432.4320624,2,1,-231.93359375,25.390625,16.11328125,-90.33203125,0.0,0
1586284432.4359686,2,1,98.14453125,28.80859375,22.94921875,53.7109375,0.0,0
1586284432.439875,2,1,281.25,23.92578125,14.6484375,112.3046875,0.0,0
1586284432.4437811,2,1,89.84375,16.6015625,14.6484375,28.3203125,0.0,0
1586284432.4476874,2,1,-234.375,26.85546875,22.94921875,-102.5390625,0.0,0
1586284432.4515936,2,1,-265.625,32.2265625,19.04296875,-94.23828125,0.0,0
1586284432.4555,2,1,46.875,28.3203125,20.5078125,44.921875,0.0,0
1586284432.4594061,2,1,284.1796875,26.85546875,30.2734375,146.484375,0.0,0
1586284432.4633124,2,1,133.7890625,35.64453125,35.15625,87.40234375,0.0,0
1586284432.4672186,2,1,-205.56640625,51.7578125,35.64453125,-56.640625,0.0,0
1586284432.471125,2,1,-300.78125,29.78515625,12.20703125,-127.9296875,0.0,0
1586284432.4750311,2,1,-7.8125,15.13671875,10.25390625,-2.9296875,0.0,0
1586284432.4789374,2,1,277.83203125,23.4375,26.3671875,141.11328125,0.0,0
1586284432.4828436,2,1,170.41015625,27.34375,26.85546875,96.6796875,0.0,0
1586284432.48675,2,1,-165.0390625,23.92578125,32.71484375,-58.59375,0.0,0
1586284432.4906561,2,1,-279.296875,18.5546875,40.0390625,-111.81640625,0.0,0
1586284432.4945624,2,1,-15.625,23.92578125,40.0390625,17.578125,0.0,0
1586284432.4984686,2,1,267.08984375,21.97265625,29.78515625,136.23046875,0.0,0
1586284432.502375,2,1,200.68359375,12.6953125,23.92578125,91.30859375,0.0,0
1586284432.5062811,2,1,-121.09375,24.90234375,29.78515625,-50.78125,0.0,0
1586284432.5101874,2,1,-280.2734375,36.62109375,29.78515625,-99.609375,0.0,0
1586284432.5140936,2,1,-62.01171875,22.94921875,13.18359375,-13.671875,0.0,0
1586284432.518,2,1,270.99609375,15.13671875,5.37109375,111.81640625,0.0,0
1586284432.5219061,2,1,288.0859375,25.390625,18.06640625,124.0234375,0.0,0
1586284432.5258124,2,1,-23.4375,30.2734375,29.296875,-9.27734375,0.0,0
1586284432.5297186,2,1,-231.4453125,25.390625,20.01953125,-111.328125,0.0,0
1586284432.533625,2,1,-37.59765625,24.4140625,6.34765625,-30.76171875,0.0,0
1586284432.5375311,2,1,316.40625,25.87890625,12.20703125,125.0,0.0,0
1586284432.5414374,2,1,365.234375,14.6484375,17.08984375,136.23046875,0.0,0
1586284432.5453436,2,1,69.82421875,6.34765625,11.23046875,-5.859375,0.0,0
1586284432.54925,2,1,-150.87890625,13.671875,17.578125,-103.515625,0.0,0
1586284432.5531561,2,1,21.484375,29.296875,38.0859375,-9.765625,0.0,0
1586284432.5570624,2,1,372.55859375,35.15625,39.0625,145.5078125,0.0,0
1586284432.5609686,2,1,455.078125,22.4609375,28.3203125,142.578125,0.0,0
1586284432.564875,2,1,193.84765625,23.92578125,29.78515625,16.11328125,0.0,0
1586284432.5687811,2,1,-62.01171875,36.1328125,40.0390625,-84.47265625,0.0,0
1586284432.5726874,2,1,33.203125,40.52734375,43.45703125,-39.0625,0.0,0
1586284432.5765936,2,1,369.140625,38.57421875,35.15625,98.14453125,0.0,0
1586284432.5805,2,1,511.71875,29.296875,30.76171875,149.4140625,0.0,0
1586284432.5844061,2,1,273.4375,31.25,38.0859375,47.36328125,0.0,0
1586284432.5883124,2,1,-36.1328125,27.83203125,39.55078125,-85.44921875,0.0,0
1586284432.5922186,2,1,-6.34765625,24.4140625,39.55078125,-75.1953125,0.0,0
1586284432.596125,2,1,317.87109375,26.3671875,37.109375,69.82421875,0.0,0
1586284432.6000311,2,1,511.71875,33.203125,37.109375,171.875,0.0,0
1586284432.6039374,2,1,301.7578125,39.0625,36.1328125,62.01171875,0.0,0
1586284432.6078436,2,1,-39.55078125,36.62109375,35.64453125,-101.07421875,0.0,0
1586284432.61175,2,1,-46.38671875,33.69140625,41.9921875,-86.42578125,0.0,0
1586284432.6156561,2,1,281.25,34.66796875,52.734375,81.54296875,0.0,0
1586284432.6195624,2,1,477.05078125,30.2734375,33.203125,157.2265625,0.0,0
1586284432.6234686,2,1,299.8046875,25.390625,26.85546875,62.98828125,0.0,0
1586284432.627375,2,1,-33.69140625,24.90234375,45.41015625,-76.66015625,0.0,0
1586284432.6312811,2,1,-112.3046875,16.6015625,36.62109375,-96.6796875,0.0,0
1586284432.6351874,2,1,179.19921875,12.6953125,18.5546875,29.78515625,0.0,0
1586284432.6390936,2,1,443.359375,21.97265625,20.5078125,140.13671875,0.0,0
1586284432.643,2,1,334.47265625,31.25,42.48046875,98.14453125,0.0,0
1586284432.6469061,2,1,-13.18359375,34.1796875,53.7109375,-42.48046875,0.0,0
1586284432.6508124,2,1,-134.765625,32.2265625,42.96875,-84.9609375,0.0,0
1586284432.6547186,2,1,123.53515625,21.97265625,23.92578125,15.13671875,0.0,0
1586284432.658625,2,1,424.8046875,29.296875,32.71484375,155.76171875,0.0,0
1586284432.6625311,2,1,359.375,41.9921875,46.38671875,135.25390625,0.0,0
1586284432.6664374,2,1,0.0,22.94921875,22.94921875,-64.94140625,0.0,0
1586284432.6703436,2,1,-140.625,17.08984375,20.99609375,-125.48828125,0.0,0
1586284432.67425,2,1,122.55859375,27.34375,44.921875,9.765625,0.0,0
1586284432.6781561,2,1,423.33984375,31.73828125,46.875,130.37109375,0.0,0
1586284432.6820624,2,1,368.1640625,28.80859375,33.69140625,91.30859375,0.0,0
1586284432.6859686,2,1,52.24609375,27.34375,25.87890625,-40.52734375,0.0,0
1586284432.689875,2,1,-145.99609375,25.87890625,23.4375,-110.3515625,0.0,0
1586284432.6937811,2,1,29.296875,18.06640625,35.15625,-23.4375,0.0,0
1586284432.6976874,2,1,356.93359375,16.6015625,36.1328125,113.28125,0.0,0
1586284432.7015936,2,1,383.7890625,21.484375,41.50390625,119.62890625,0.0,0
1586284432.7055,2,1,83.984375,45.8984375,58.59375,12.20703125,0.0,0
1586284432.7094061,2,1,-167.96875,41.50390625,35.15625,-112.79296875,0.0,0
1586284432.7133124,2,1,-30.2734375,12.6953125,13.18359375,-72.265625,0.0,0
1586284432.7172186,2,1,313.96484375,13.18359375,24.90234375,91.796875,0.0,0
1586284432.721125,2,1,390.625,22.94921875,31.25,129.8828125,0.0,0
1586284432.7250311,2,1,93.75,23.4375,15.625,-6.8359375,0.0,0
1586284432.7289374,2,1,-172.8515625,25.87890625,8.30078125,-115.234375,0.0,0
1586284432.7328436,2,1,-50.78125,31.73828125,19.53125,-46.875,0.0,0
1586284432.73675,2,1,290.52734375,29.296875,26.3671875,102.05078125,0.0,0
1586284432.7406561,2,1,403.80859375,32.71484375,41.015625,150.390625,0.0,0
1586284432.7445624,2,1,152.34375,30.76171875,39.0625,30.76171875,0.0,0
1586284432.7484686,2,1,-135.7421875,40.52734375,33.69140625,-89.35546875,0.0,0
1586284432.752375,2,1,-94.7265625,54.6875,37.59765625,-50.29296875,0.0,0
1586284432.7562811,2,1,212.40234375,34.66796875,20.5078125,53.7109375,0.0,0
1586284432.7601874,2,1,383.7890625,31.25,24.4140625,124.0234375,0.0,0
1586284432.7640936,2,1,163.0859375,35.64453125,38.0859375,49.31640625,0.0,0
1586284432.768,2,1,-152.34375,33.69140625,39.0625,-102.05078125,0.0,0
1586284432.7719061,2,1,-156.25,36.62109375,30.2734375,-115.72265625,0.0,0
1586284432.7758124,2,1,147.4609375,33.69140625,35.64453125,41.50390625,0.0,0
1586284432.7797186,2,1,372.0703125,33.203125,43.45703125,148.4375,0.0,0
1586284432.783625,2,1,190.4296875,27.34375,26.85546875,48.828125,0.0,0
1586284432.7875311,2,1,-149.4140625,37.109375,28.3203125,-84.47265625,0.0,0
1586284432.7914374,2,1,-184.08203125,48.828125,35.15625,-79.58984375,0.0,0
1586284432.7953436,2,1,115.234375,44.43359375,43.45703125,62.01171875,0.0,0
1586284432.79925,2,1,326.171875,31.73828125,34.66796875,137.20703125,0.0,0
1586284432.8031561,2,1,185.05859375,25.87890625,17.578125,42.48046875,0.0,0
1586284432.8070624,2,1,-130.859375,31.25,30.2734375,-89.35546875,0.0,0
1586284432.8109686,2,1,-228.515625,36.1328125,40.52734375,-108.88671875,0.0,0
1586284432.814875,2,1,38.57421875,28.3203125,28.80859375,-0.48828125,0.0,0
1586284432.8187811,2,1,307.6171875,19.04296875,23.92578125,106.4453125,0.0,0
1586284432.8226874,2,1,237.3046875,31.73828125,36.1328125,80.56640625,0.0,0
1586284432.8265936,2,1,-94.23828125,37.59765625,31.73828125,-80.078125,0.0,0
1586284432.8305,2,1,-246.09375,31.73828125,20.99609375,-144.04296875,0.0,0
1586284432.8344061,2,1,0.9765625,41.9921875,27.83203125,-11.23046875,0.0,0
1586284432.8383124,2,1,307.6171875,52.24609375,26.3671875,127.44140625,0.0,0
1586284432.8422186,2,1,265.625,49.31640625,27.83203125,104.4921875,0.0,0
1586284432.846125,2,1,-83.984375,37.109375,19.53125,-77.1484375,0.0,0
1586284432.8500311,2,1,-259.27734375,33.203125,19.53125,-145.5078125,0.0,0
1586284432.8539374,2,1,-45.8984375,32.71484375,38.57421875,-30.2734375,0.0,0
1586284432.8578436,2,1,266.6015625,28.3203125,45.41015625,104.98046875,0.0,0
1586284432.86175,2,1,285.64453125,26.85546875,33.69140625,105.46875,0.0,0
1586284432.8656561,2,1,-20.01953125,26.85546875,21.97265625,-33.203125,0.0,0
1586284432.8695624,2,1,-234.86328125,25.87890625,24.90234375,-113.76953125,0.0,0
1586284432.8734686,2,1,-80.56640625,30.2734375,27.83203125,-41.015625,0.0,0
1586284432.877375,2,1,246.58203125,31.73828125,27.83203125,86.9140625,0.0,0
1586284432.8812811,2,1,322.75390625,32.71484375,46.875,127.44140625,0.0,0
1586284432.8851874,2,1,41.9921875,39.55078125,50.78125,10.7421875,0.0,0
1586284432.8890936,2,1,-244.62890625,28.80859375,28.3203125,-126.953125,0.0,0
1586284432.893,2,1,-144.53125,18.06640625,21.484375,-90.8203125,0.0,0
1586284432.8969061,2,1,229.4921875,28.80859375,24.90234375,78.125,0.0,0
1586284432.9008124,2,1,341.30859375,34.1796875,30.2734375,124.0234375,0.0,0
1586284432.9047186,2,1,62.01171875,29.78515625,34.1796875,-6.8359375,0.0,0
1586284432.908625,2,1,-209.9609375,32.71484375,39.55078125,-117.67578125,0.0,0
1586284432.9125311,2,1,-136.71875,30.76171875,45.41015625,-66.40625,0.0,0
1586284432.9164374,2,1,194.82421875,30.2734375,34.1796875,91.796875,0.0,0
1586284432.9203436,2,1,341.796875,34.66796875,33.69140625,147.4609375,0.0,0
1586284432.92425,2,1,102.5390625,32.71484375,41.9921875,28.80859375,0.0,0
1586284432.9281561,2,1,-188.4765625,39.0625,49.8046875,-79.1015625,0.0,0
1586284432.9320624,2,1,-161.62109375,49.31640625,54.6875,-44.921875,0.0,0
1586284432.9359686,2,1,129.8828125,30.2734375,32.71484375,48.828125,0.0,0
1586284432.939875,2,1,334.47265625,30.76171875,28.3203125,121.09375,0.0,0
1586284432.9437811,2,1,162.59765625,49.31640625,42.96875,51.7578125,0.0,0
1586284432.9476874,2,1,-179.19921875,38.57421875,43.45703125,-98.6328125,0.0,0
1586284432.9515936,2,1,-200.1953125,23.92578125,40.52734375,-104.98046875,0.0,0
1586284432.9555,2,1,114.2578125,26.3671875,29.296875,31.25,0.0,0
1586284432.9594061,2,1,355.95703125,41.50390625,37.109375,142.08984375,0.0,0
1586284432.9633124,2,1,207.03125,39.0625,45.41015625,67.87109375,0.0,0
1586284432.9672186,2,1,-139.16015625,25.87890625,42.96875,-80.078125,0.0,0
1586284432.971125,2,1,-225.5859375,24.90234375,31.73828125,-110.3515625,0.0,0
1586284432.9750311,2,1,64.94140625,30.2734375,37.109375,40.0390625,0.0,0
1586284432.9789374,2,1,332.03125,34.66796875,43.9453125,148.4375,0.0,0
1586284432.9828436,2,1,228.02734375,40.0390625,39.0625,80.56640625,0.0,0
1586284432.98675,2,1,-98.14453125,44.43359375,51.26953125,-48.828125,0.0,0
1586284432.9906561,2,1,-211.9140625,50.78125,65.91796875,-75.1953125,0.0,0
1586284432.9945624,2,1,20.5078125,36.1328125,50.29296875,14.16015625,0.0,0
1586284432.9984686,2,1,301.26953125,27.83203125,19.53125,122.0703125,0.0,0
1586284433.002375,2,1,245.60546875,42.48046875,17.578125,109.86328125,0.0,0
1586284433.0062811,2,1,-100.09765625,39.55078125,28.80859375,-40.0390625,0.0,0
1586284433.0101874,2,1,-264.6484375,26.85546875,25.390625,-116.69921875,0.0,0
1586284433.0140936,2,1,-53.7109375,18.5546875,16.6015625,-32.2265625,0.0,0
1586284433.018,2,1,266.6015625,24.90234375,27.34375,102.5390625,0.0,0
1586284433.0219061,2,1,258.7890625,29.78515625,35.15625,109.375,0.0,0
1586284433.0258124,2,1,-65.4296875,25.390625,24.90234375,-25.87890625,0.0,0
1586284433.0297186,2,1,-284.1796875,19.53125,14.16015625,-127.44140625,0.0,0
1586284433.033625,2,1,-109.375,21.97265625,16.6015625,-35.15625,0.0,0
1586284433.0375311,2,1,229.00390625,33.69140625,40.52734375,127.44140625,0.0,0
1586284433.0414374,2,1,254.8828125,25.87890625,28.80859375,109.375,0.0,0
1586284433.0453436,2,1,-34.1796875,17.08984375,14.16015625,-17.578125,0.0,0
1586284433.04925,2,1,-256.8359375,19.04296875,23.4375,-106.93359375,0.0,0
1586284433.0531561,2,1,-144.04296875,16.11328125,17.08984375,-61.5234375,0.0,0
1586284433.0570624,2,1,182.12890625,23.4375,16.11328125,91.30859375,0.0,0
1586284433.0609686,2,1,290.52734375,36.62109375,23.4375,137.6953125,0.0,0
1586284433.064875,2,1,11.71875,30.76171875,20.01953125,0.48828125,0.0,0
1586284433.0687811,2,1,-259.765625,25.390625,14.6484375,-117.1875,0.0,0
1586284433.0726874,2,1,-194.3359375,20.01953125,12.6953125,-77.1484375,0.0,0
1586284433.0765936,2,1,143.06640625,16.6015625,12.20703125,67.3828125,0.0,0
1586284433.0805,2,1,318.359375,28.3203125,24.90234375,147.94921875,0.0,0
1586284433.0844061,2,1,61.5234375,12.6953125,11.71875,23.92578125,0.0,0
1586284433.0883124,2,1,-250.9765625,1.953125,5.37109375,-115.72265625,0.0,0
1586284433.0922186,2,1,-210.9375,15.625,22.4609375,-76.66015625,0.0,0
1586284433.096125,2,1,107.91015625,23.4375,24.4140625,59.08203125,0.0,0
1586284433.1000311,2,1,291.9921875,21.97265625,14.6484375,116.2109375,0.0,0
1586284433.1039374,2,1,99.12109375,26.85546875,17.08984375,28.80859375,0.0,0
1586284433.1078436,2,1,-224.12109375,29.78515625,21.97265625,-104.98046875,0.0,0
1586284433.11175,2,1,-240.72265625,28.3203125,20.99609375,-100.5859375,0.0,0
1586284433.1156561,2,1,68.359375,31.25,24.4140625,50.29296875,0.0,0
1586284433.1195624,2,1,278.3203125,31.25,21.484375,126.953125,0.0,0
1586284433.1234686,2,1,128.41796875,42.48046875,29.296875,55.17578125,0.0,0
1586284433.127375,2,1,-212.40234375,40.52734375,36.62109375,-66.40625,0.0,0
1586284433.1312811,2,1,-278.80859375,8.30078125,22.94921875,-124.0234375,0.0,0
1586284433.1351874,2,1,21.484375,11.23046875,26.85546875,-9.765625,0.0,0
1586284433.1390936,2,1,284.1796875,25.390625,38.0859375,115.234375,0.0,0
1586284433.143,2,1,177.24609375,23.92578125,33.203125,66.40625,0.0,0
1586284433.1469061,2,1,-160.15625,24.90234375,26.85546875,-82.03125,0.0,0
1586284433.1508124,2,1,-259.27734375,31.25,36.62109375,-115.234375,0.0,0
1586284433.1547186,2,1,-13.18359375,29.78515625,31.73828125,0.9765625,0.0,0
1586284433.158625,2,1,247.55859375,18.5546875,13.18359375,99.12109375,0.0,0
1586284433.1625311,2,1,202.1484375,23.4375,21.97265625,73.2421875,0.0,0
1586284433.1664374,2,1,-121.58203125,30.76171875,28.80859375,-67.3828125,0.0,0
1586284433.1703436,2,1,-270.01953125,28.3203125,39.55078125,-114.74609375,0.0,0
1586284433.17425,2,1,-26.85546875,15.13671875,24.4140625,-5.859375,0.0,0
1586284433.1781561,2,1,255.859375,14.6484375,10.7421875,112.79296875,0.0,0
1586284433.1820624,2,1,242.1875,21.484375,18.06640625,109.375,0.0,0
1586284433.1859686,2,1,-74.70703125,20.01953125,13.18359375,-35.15625,0.0,0
1586284433.189875,2,1,-276.85546875,22.4609375,12.6953125,-127.44140625,0.0,0
1586284433.1937811,2,1,-72.265625,23.4375,15.625,-29.78515625,0.0,0
1586284433.1976874,2,1,244.140625,21.97265625,24.90234375,111.328125,0.0,0
1586284433.2015936,2,1,266.11328125,22.94921875,27.83203125,116.2109375,0.0,0
1586284433.2055,2,1,-42.48046875,25.87890625,22.4609375,-22.4609375,0.0,0
1586284433.2094061,2,1,-277.34375,19.04296875,29.296875,-119.62890625,0.0,0
1586284433.2133124,2,1,-127.44140625,14.6484375,36.62109375,-43.9453125,0.0,0
1586284433.2172186,2,1,187.98828125,20.5078125,39.0625,106.4453125,0.0,0
1586284433.221125,2,1,253.90625,9.765625,15.13671875,97.65625,0.0,0
1586284433.2250311,2,1,-1.46484375,13.18359375,13.671875,-21.97265625,0.0,0
1586284433.2289374,2,1,-261.71875,29.296875,23.92578125,-105.46875,0.0,0
1586284433.2328436,2,1,-182.6171875,20.5078125,11.23046875,-66.89453125,0.0,0
1586284433.23675,2,1,150.390625,18.5546875,9.27734375,75.1953125,0.0,0
1586284433.2406561,2,1,282.71484375,24.90234375,11.71875,129.8828125,0.0,0
1586284433.2445624,2,1,28.80859375,30.76171875,14.6484375,20.5078125,0.0,0
1586284433.2484686,2,1,-258.7890625,31.73828125,9.27734375,-109.86328125,0.0,0
1586284433.252375,2,1,-191.40625,24.90234375,1.953125,-80.56640625,0.0,0
1586284433.2562811,2,1,141.6015625,25.87890625,13.18359375,77.1484375,0.0,0
1586284433.2601874,2,1,323.2421875,27.34375,19.53125,148.92578125,0.0,0
1586284433.2640936,2,1,90.8203125,16.6015625,8.30078125,28.80859375,0.0,0
1586284433.268,2,1,-235.83984375,13.671875,-1.953125,-127.9296875,0.0,0
1586284433.2719061,2,1,-211.9140625,22.94921875,13.671875,-106.4453125,0.0,0
1586284433.2758124,2,1,93.75,33.69140625,34.1796875,41.015625,0.0,0
1586284433.2797186,2,1,293.45703125,34.66796875,27.83203125,119.62890625,0.0,0
1586284433.283625,2,1,136.23046875,23.92578125,17.578125,49.31640625,0.0,0
1586284433.2875311,2,1,-192.3828125,26.85546875,21.97265625,-80.56640625,0.0,0
1586284433.2914374,2,1,-262.20703125,28.3203125,18.5546875,-97.16796875,0.0,0
1586284433.2953436,2,1,23.92578125,20.5078125,16.11328125,24.90234375,0.0,0
1586284433.29925,2,1,270.01953125,18.06640625,20.5078125,128.90625,0.0,0
1586284433.3031561,2,1,167.48046875,32.2265625,29.296875,89.35546875,0.0,0
1586284433.3070624,2,1,-152.83203125,47.36328125,31.73828125,-40.52734375,0.0,0
1586284433.3109686,2,1,-298.828125,32.71484375,6.8359375,-121.58203125,0.0,0
1586284433.314875,2,1,-18.06640625,24.90234375,0.0,-10.7421875,0.0,0
1586284433.3187811,2,1,286.62109375,26.85546875,10.7421875,116.2109375,0.0,0
1586284433.3226874,2,1,202.1484375,24.90234375,13.671875,80.078125,0.0,0
1586284433.3265936,2,1,-124.0234375,16.11328125,16.11328125,-72.75390625,0.0,0
1586284433.3305,2,1,-258.7890625,18.5546875,26.85546875,-126.46484375,0.0,0
1586284433.3344061,2,1,-19.04296875,32.2265625,27.83203125,0.0,0.0,0
1586284433.3383124,2,1,276.3671875,30.2734375,22.4609375,129.39453125,0.0,0
1586284433.3422186,2,1,244.140625,21.97265625,28.3203125,115.234375,0.0,0
1586284433.346125,2,1,-74.21875,22.94921875,34.1796875,-40.0390625,0.0,0
1586284433.3500311,2,1,-259.27734375,34.66796875,44.43359375,-104.00390625,0.0,0
1586284433.3539374,2,1,-78.125,36.1328125,43.45703125,-21.97265625,0.0,0
1586284433.3578436,2,1,230.95703125,28.3203125,32.2265625,84.9609375,0.0,0
1586284433.36175,2,1,263.671875,22.94921875,35.64453125,106.93359375,0.0,0
1586284433.3656561,2,1,-21.97265625,28.80859375,46.38671875,10.7421875,0.0,0
1586284433.3695624,2,1,-263.18359375,25.87890625,30.76171875,-110.3515625,0.0,0
1586284433.3734686,2,1,-142.08984375,21.97265625,19.04296875,-54.19921875,0.0,0
1586284433.377375,2,1,209.47265625,29.78515625,23.4375,110.3515625,0.0,0
1586284433.3812811,2,1,287.109375,28.80859375,28.3203125,132.32421875,0.0,0
1586284433.3851874,2,1,-5.859375,14.16015625,17.08984375,-6.8359375,0.0,0
1586284433.3890936,2,1,-244.140625,6.8359375,19.04296875,-116.69921875,0.0,0
1586284433.393,2,1,-120.60546875,13.671875,38.57421875,-52.24609375,0.0,0
1586284433.3969061,2,1,190.91796875,24.90234375,41.50390625,97.16796875,0.0,0
1586284433.4008124,2,1,283.203125,22.94921875,26.3671875,124.0234375,0.0,0
1586284433.4047186,2,1,39.0625,17.08984375,21.97265625,-4.8828125,0.0,0
1586284433.408625,2,1,-229.98046875,24.90234375,29.78515625,-103.515625,0.0,0
1586284433.4125311,2,1,-176.7578125,31.73828125,28.80859375,-52.24609375,0.0,0
1586284433.4164374,2,1,126.46484375,21.97265625,16.6015625,48.828125,0.0,0
1586284433.4203436,2,1,288.57421875,8.7890625,16.6015625,98.14453125,0.0,0
1586284433.42425,2,1,80.56640625,8.30078125,23.92578125,21.97265625,0.0,0
1586284433.4281561,2,1,-216.30859375,11.23046875,18.06640625,-115.234375,0.0,0
1586284433.4320624,2,1,-199.21875,20.99609375,15.13671875,-93.26171875,0.0,0
1586284433.4359686,2,1,105.46875,30.2734375,19.53125,52.734375,0.0,0
1586284433.439875,2,1,309.5703125,26.3671875,19.04296875,142.578125,0.0,0
1586284433.4437811,2,1,125.48828125,21.484375,20.99609375,60.546875,0.0,0
1586284433.4476874,2,1,-208.984375,23.4375,16.6015625,-94.23828125,0.0,0
1586284433.4515936,2,1,-245.60546875,17.08984375,15.625,-107.421875,0.0,0
1586284433.4555,2,1,60.546875,22.4609375,20.5078125,50.29296875,0.0,0
1586284433.4594061,2,1,291.50390625,16.11328125,5.859375,122.0703125,0.0,0
1586284433.4633124,2,1,157.2265625,7.8125,7.8125,36.1328125,0.0,0
1586284433.4672186,2,1,-154.296875,17.578125,20.99609375,-80.078125,0.0,0
1586284433.471125,2,1,-246.09375,19.04296875,19.04296875,-109.375,0.0,0
1586284433.4750311,2,1,10.7421875,16.11328125,20.01953125,3.90625,0.0,0
1586284433.4789374,2,1,280.2734375,6.8359375,16.11328125,109.375,0.0,0
1586284433.4828436,2,1,202.63671875,17.578125,11.23046875,74.21875,0.0,0
1586284433.48675,2,1,-131.8359375,28.3203125,12.6953125,-65.91796875,0.0,0
1586284433.4906561,2,1,-267.08984375,26.3671875,20.5078125,-114.2578125,0.0,0
1586284433.4945624,2,1,-40.52734375,23.92578125,16.11328125,-7.32421875,0.0,0
1586284433.4984686,2,1,255.37109375,24.90234375,22.94921875,119.62890625,0.0,0
1586284433.502375,2,1,229.98046875,34.1796875,38.0859375,107.91015625,0.0,0
1586284433.5062811,2,1,-116.2109375,28.3203125,24.4140625,-75.1953125,0.0,0
1586284433.5101874,2,1,-288.57421875,29.78515625,20.01953125,-151.3671875,0.0,0
1586284433.5140936,2,1,-52.734375,34.66796875,20.99609375,-29.78515625,0.0,0
1586284433.518,2,1,255.859375,26.85546875,12.20703125,105.46875,0.0,0
1586284433.5219061,2,1,262.6953125,26.85546875,11.23046875,101.07421875,0.0,0
1586284433.5258124,2,1,-28.80859375,39.55078125,23.92578125,-18.06640625,0.0,0
1586284433.5297186,2,1,-237.3046875,41.50390625,25.87890625,-90.8203125,0.0,0
1586284433.533625,2,1,-107.421875,30.2734375,19.04296875,-19.04296875,0.0,0
1586284433.5375311,2,1,201.171875,24.90234375,21.97265625,116.2109375,0.0,0
1586284433.5414374,2,1,260.7421875,17.578125,26.3671875,118.65234375,0.0,0
1586284433.5453436,2,1,-13.18359375,20.99609375,39.0625,19.04296875,0.0,0
1586284433.54925,2,1,-267.08984375,20.99609375,24.4140625,-93.75,0.0,0
1586284433.5531561,2,1,-158.69140625,13.18359375,11.71875,-77.1484375,0.0,0
1586284433.5570624,2,1,177.24609375,15.625,24.4140625,72.265625,0.0,0
1586284433.5609686,2,1,274.4140625,15.625,26.85546875,118.65234375,0.0,0
1586284433.564875,2,1,9.765625,8.30078125,8.7890625,-19.53125,0.0,0
1586284433.5687811,2,1,-259.27734375,7.8125,12.6953125,-133.30078125,0.0,0
1586284433.5726874,2,1,-159.66796875,5.37109375,25.87890625,-85.9375,0.0,0
1586284433.5765936,2,1,183.10546875,13.18359375,20.01953125,62.01171875,0.0,0
1586284433.5805,2,1,329.58984375,22.4609375,12.20703125,125.48828125,0.0,0
1586284433.5844061,2,1,133.7890625,24.90234375,17.578125,30.2734375,0.0,0
1586284433.5883124,2,1,-141.11328125,19.53125,31.73828125,-96.6796875,0.0,0
1586284433.5922186,2,1,-116.2109375,26.85546875,39.0625,-58.59375,0.0,0
1586284433.596125,2,1,192.87109375,25.390625,15.625,44.43359375,0.0,0
1586284433.6000311,2,1,394.53125,20.5078125,10.25390625,108.3984375,0.0,0
1586284433.6039374,2,1,230.46875,23.92578125,20.99609375,53.22265625,0.0,0
1586284433.6078436,2,1,-77.63671875,25.87890625,21.484375,-83.49609375,0.0,0
1586284433.61175,2,1,-106.4453125,30.76171875,24.4140625,-92.28515625,0.0,0
1586284433.6156561,2,1,207.03125,24.90234375,19.04296875,29.78515625,0.0,0
1586284433.6195624,2,1,459.9609375,20.01953125,22.4609375,153.3203125,0.0,0
1586284433.6234686,2,1,323.73046875,22.4609375,20.5078125,94.23828125,0.0,0
1586284433.627375,2,1,-7.8125,20.99609375,8.7890625,-79.1015625,0.0,0
1586284433.6312811,2,1,-75.1953125,22.94921875,15.625,-100.09765625,0.0,0
1586284433.6351874,2,1,208.984375,37.109375,29.296875,51.7578125,0.0,0
1586284433.6390936,2,1,443.359375,34.66796875,17.578125,132.8125,0.0,0
1586284433.643,2,1,326.66015625,19.53125,4.8828125,59.08203125,0.0,0
1586284433.6469061,2,1,8.30078125,22.4609375,18.06640625,-55.6640625,0.0,0
1586284433.6508124,2,1,-113.76953125,31.73828125,25.87890625,-88.37890625,0.0,0
1586284433.6547186,2,1,112.79296875,23.4375,9.765625,4.39453125,0.0,0
1586284433.658625,2,1,386.23046875,10.7421875,0.0,94.7265625,0.0,0
1586284433.6625311,2,1,341.30859375,15.625,13.671875,71.2890625,0.0,0
1586284433.6664374,2,1,11.23046875,22.4609375,18.5546875,-62.5,0.0,0
1586284433.6703436,2,1,-170.41015625,17.578125,11.71875,-134.765625,0.0,0
1586284433.67425,2,1,33.69140625,16.6015625,9.765625,-23.92578125,0.0,0
1586284433.6781561,2,1,336.42578125,22.4609375,19.53125,136.23046875,0.0,0
1586284433.6820624,2,1,326.171875,29.78515625,28.3203125,139.16015625,0.0,0
1586284433.6859686,2,1,-6.34765625,18.5546875,14.6484375,-40.0390625,0.0,0
1586284433.689875,2,1,-220.703125,12.20703125,13.671875,-138.18359375,0.0,0
1586284433.6937811,2,1,-38.57421875,19.04296875,30.2734375,-43.45703125,0.0,0
1586284433.6976874,2,1,274.4140625,9.27734375,29.78515625,82.51953125,0.0,0
1586284433.7015936,2,1,304.6875,7.32421875,20.5078125,82.51953125,0.0,0
1586284433.7055,2,1,12.6953125,11.23046875,16.11328125,-40.52734375,0.0,0
1586284433.7094061,2,1,-226.5625,24.4140625,27.34375,-118.65234375,0.0,0
1586284433.7133124,2,1,-112.3046875,32.71484375,33.69140625,-62.98828125,0.0,0
1586284433.7172186,2,1,200.68359375,26.3671875,25.87890625,66.40625,0.0,0
1586284433.721125,2,1,289.55078125,24.4140625,20.01953125,103.515625,0.0,0
1586284433.7250311,2,1,30.76171875,33.69140625,28.80859375,8.30078125,0.0,0
1586284433.7289374,2,1,-249.51171875,25.390625,26.3671875,-113.28125,0.0,0
1586284433.7328436,2,1,-170.41015625,16.6015625,18.5546875,-95.21484375,0.0,0
1586284433.73675,2,1,144.53125,25.390625,18.06640625,55.6640625,0.0,0
1586284433.7406561,2,1,268.5546875,33.203125,30.2734375,135.7421875,0.0,0
1586284433.7445624,2,1,28.3203125,32.2265625,32.2265625,11.23046875,0.0,0
1586284433.7484686,2,1,-267.578125,27.34375,21.484375,-125.9765625,0.0,0
1586284433.752375,2,1,-227.05078125,23.4375,19.53125,-91.796875,0.0,0
1586284433.7562811,2,1,95.703125,30.76171875,27.34375,50.29296875,0.0,0
1586284433.7601874,2,1,274.90234375,32.2265625,26.3671875,120.60546875,0.0,0
1586284433.7640936,2,1,85.44921875,29.296875,20.99609375,35.15625,0.0,0
1586284433.768,2,1,-223.14453125,33.69140625,21.484375,-103.02734375,0.0,0
1586284433.7719061,2,1,-243.1640625,27.34375,25.87890625,-103.02734375,0.0,0
1586284433.7758124,2,1,48.33984375,22.94921875,22.4609375,37.109375,0.0,0
1586284433.7797186,2,1,249.0234375,25.87890625,13.18359375,102.05078125,0.0,0
1586284433.783625,2,1,108.88671875,31.73828125,24.4140625,41.50390625,0.0,0
1586284433.7875311,2,1,-206.54296875,38.57421875,38.0859375,-63.96484375,0.0,0
1586284433.7914374,2,1,-297.8515625,17.08984375,19.04296875,-124.51171875,0.0,0
1586284433.7953436,2,1,-5.37109375,14.6484375,18.06640625,-6.34765625,0.0,0
1586284433.79925,2,1,260.7421875,23.92578125,28.80859375,111.81640625,0.0,0
1586284433.8031561,2,1,134.765625,16.11328125,17.578125,49.8046875,0.0,0
1586284433.8070624,2,1,-203.61328125,23.4375,21.97265625,-88.8671875,0.0,0
1586284433.8109686,2,1,-299.31640625,32.2265625,33.69140625,-113.76953125,0.0,0
1586284433.814875,2,1,-31.25,28.80859375,23.4375,13.671875,0.0,0
1586284433.8187811,2,1,224.12109375,24.4140625,26.3671875,121.09375,0.0,0
1586284433.8226874,2,1,145.5078125,24.90234375,30.76171875,71.77734375,0.0,0
1586284433.8265936,2,1,-182.6171875,32.2265625,29.78515625,-68.359375,0.0,0
1586284433.8305,2,1,-322.75390625,40.0390625,47.36328125,-93.75,0.0,0
1586284433.8344061,2,1,-104.00390625,30.76171875,37.59765625,-7.32421875,0.0,0
1586284433.8383124,2,1,184.08203125,15.625,27.34375,81.0546875,0.0,0
1586284433.8422186,2,1,182.6171875,28.80859375,40.52734375,85.44921875,0.0,0
1586284433.846125,2,1,-137.6953125,38.0859375,40.0390625,-43.45703125,0.0,0
1586284433.8500311,2,1,-338.8671875,26.3671875,29.296875,-138.671875,0.0,0
1586284433.8539374,2,1,-147.4609375,27.34375,32.2265625,-41.50390625,0.0,0
1586284433.8578436,2,1,166.9921875,25.87890625,36.1328125,104.4921875,0.0,0
1586284433.86175,2,1,176.7578125,26.3671875,25.87890625,105.46875,0.0,0
1586284433.8656561,2,1,-108.88671875,31.25,26.85546875,-20.01953125,0.0,0
1586284433.8695624,2,1,-306.640625,26.3671875,26.3671875,-109.375,0.0,0
1586284433.8734686,2,1,-151.85546875,34.1796875,27.83203125,-28.3203125,0.0,0
1586284433.877375,2,1,178.7109375,44.43359375,39.55078125,133.7890625,0.0,0
1586284433.8812811,2,1,247.55859375,30.76171875,23.4375,126.953125,0.0,0
1586284433.8851874,2,1,-10.25390625,30.2734375,27.83203125,-5.859375,0.0,0
1586284433.8890936,2,1,-274.90234375,29.78515625,46.38671875,-90.8203125,0.0,0
1586284433.893,3,1,-194.82421875,27.34375,43.9453125,-55.17578125,0.0,0
1586284433.8969061,3,1,128.90625,32.71484375,20.99609375,72.265625,0.0,0
1586284433.9008124,3,1,265.625,35.64453125,17.08984375,137.20703125,0.0,0
1586284433.9047186,3,1,46.875,41.015625,40.0390625,28.3203125,0.0,0
1586284433.908625,3,1,-246.58203125,31.73828125,35.64453125,-112.79296875,0.0,0
1586284433.9125311,3,1,-208.49609375,21.484375,29.296875,-91.30859375,0.0,0
1586284433.9164374,3,1,103.02734375,24.90234375,24.4140625,49.8046875,0.0,0
1586284433.9203436,3,1,266.6015625,27.83203125,27.34375,132.8125,0.0,0
1586284433.92425,3,1,64.94140625,19.53125,22.94921875,32.2265625,0.0,0
1586284433.9281561,3,1,-229.4921875,21.97265625,15.625,-111.81640625,0.0,0
1586284433.9320624,3,1,-210.44921875,38.0859375,34.66796875,-85.9375,0.0,0
1586284433.9359686,3,1,94.23828125,32.71484375,41.50390625,43.45703125,0.0,0
1586284433.939875,3,1,283.69140625,22.4609375,20.99609375,106.93359375,0.0,0
1586284433.9437811,3,1,124.51171875,22.94921875,10.7421875,29.296875,0.0,0
1586284433.9476874,3,1,-174.31640625,31.73828125,29.78515625,-80.078125,0.0,0
1586284433.9515936,3,1,-236.328125,29.296875,31.73828125,-88.37890625,0.0,0
1586284433.9555,3,1,41.9921875,30.2734375,28.3203125,27.34375,0.0,0
1586284433.9594061,3,1,316.40625,38.0859375,29.296875,135.7421875,0.0,0
1586284433.9633124,3,1,187.98828125,32.2265625,16.6015625,79.58984375,0.0,0
1586284433.9672186,3,1,-165.0390625,29.296875,13.671875,-51.7578125,0.0,0
1586284433.971125,3,1,-271.97265625,22.94921875,0.9765625,-127.44140625,0.0,0
1586284433.9750311,3,1,3.90625,23.92578125,8.30078125,-20.01953125,0.0,0
1586284433.9789374,3,1,283.203125,26.85546875,20.99609375,125.9765625,0.0,0
1586284433.9828436,3,1,190.4296875,20.5078125,13.18359375,75.1953125,0.0,0
1586284433.98675,3,1,-126.46484375,21.97265625,14.16015625,-74.21875,0.0,0
1586284433.9906561,3,1,-249.0234375,19.04296875,20.5078125,-120.1171875,0.0,0
1586284433.9945624,3,1,-19.53125,27.34375,36.1328125,0.0,0.0,0
1586284433.9984686,3,1,254.8828125,38.0859375,28.80859375,125.0,0.0,0
1586284434.002375,3,1,213.8671875,32.71484375,14.6484375,100.5859375,0.0,0
1586284434.0062811,3,1,-89.84375,30.2734375,29.296875,-27.83203125,0.0,0
1586284434.0101874,3,1,-265.625,35.15625,44.921875,-83.49609375,0.0,0
1586284434.0140936,3,1,-87.890625,25.390625,29.296875,-12.20703125,0.0,0
1586284434.018,3,1,215.8203125,18.5546875,17.08984375,97.65625,0.0,0
1586284434.0219061,3,1,251.953125,21.97265625,22.94921875,108.88671875,0.0,0
1586284434.0258124,3,1,-30.76171875,27.83203125,27.83203125,-7.8125,0.0,0
1586284434.0297186,3,1,-256.8359375,24.4140625,25.87890625,-110.83984375,0.0,0
1586284434.033625,3,1,-112.79296875,6.8359375,16.6015625,-41.9921875,0.0,0
1586284434.0375311,3,1,214.84375,10.7421875,19.53125,112.79296875,0.0,0
1586284434.0414374,3,1,276.3671875,24.90234375,20.01953125,124.51171875,0.0,0
1586284434.0453436,3,1,1.953125,28.80859375,15.13671875,-15.13671875,0.0,0
1586284434.04925,3,1,-249.51171875,28.3203125,18.06640625,-137.6953125,0.0,0
1586284434.0531561,3,1,-146.97265625,28.3203125,32.71484375,-57.6171875,0.0,0
1586284434.0570624,3,1,178.7109375,30.76171875,40.0390625,111.81640625,0.0,0
1586284434.0609686,3,1,273.4375,13.671875,17.08984375,109.86328125,0.0,0
1586284434.064875,3,1,35.15625,13.671875,13.18359375,-4.8828125,0.0,0
1586284434.0687811,3,1,-230.95703125,33.69140625,23.92578125,-105.95703125,0.0,0
1586284434.0726874,3,1,-174.31640625,31.25,24.90234375,-79.58984375,0.0,0
1586284434.0765936,3,1,141.11328125,24.4140625,23.4375,60.546875,0.0,0
1586284434.0805,3,1,291.015625,26.3671875,23.92578125,126.953125,0.0,0
1586284434.0844061,3,1,75.1953125,23.92578125,24.90234375,37.109375,0.0,0
1586284434.0883124,3,1,-221.6796875,30.76171875,29.296875,-92.28515625,0.0,0
1586284434.0922186,3,1,-197.75390625,38.0859375,30.76171875,-82.51953125,0.0,0
1586284434.096125,3,1,95.703125,23.92578125,19.53125,42.96875,0.0,0
1586284434.1000311,3,1,298.828125,28.3203125,24.4140625,144.04296875,0.0,0
1586284434.1039374,3,1,122.0703125,31.25,25.87890625,58.59375,0.0,0
1586284434.1078436,3,1,-210.9375,17.08984375,13.18359375,-108.3984375,0.0,0
1586284434.11175,3,1,-231.4453125,21.97265625,14.6484375,-111.81640625,0.0,0
1586284434.1156561,3,1,71.2890625,37.109375,26.3671875,50.29296875,0.0,0
1586284434.1195624,3,1,281.25,29.296875,10.7421875,122.55859375,0.0,0
1586284434.1234686,3,1,148.4375,26.3671875,5.37109375,40.52734375,0.0,0
1586284434.127375,3,1,-159.1796875,29.296875,16.11328125,-74.21875,0.0,0
1586284434.1312811,3,1,-246.58203125,26.85546875,2.9296875,-119.62890625,0.0,0
1586284434.1351874,3,1,13.18359375,27.83203125,0.9765625,-20.01953125,0.0,0
1586284434.1390936,3,1,276.3671875,28.80859375,17.08984375,106.93359375,0.0,0
1586284434.143,3,1,179.6875,33.203125,20.99609375,76.66015625,0.0,0
1586284434.1469061,3,1,-135.7421875,38.0859375,22.94921875,-66.89453125,0.0,0
1586284434.1508124,3,1,-248.53515625,40.52734375,25.390625,-127.9296875,0.0,0
1586284434.1547186,3,1,-20.5078125,38.57421875,21.97265625,-34.66796875,0.0,0
1586284434.158625,3,1,271.97265625,36.62109375,27.34375,105.46875,0.0,0
1586284434.1625311,3,1,225.09765625,37.59765625,26.85546875,112.3046875,0.0,0
1586284434.1664374,3,1,-108.88671875,24.4140625,1.953125,-50.29296875,0.0,0
1586284434.1703436,3,1,-264.6484375,11.71875,-1.46484375,-131.34765625,0.0,0
1586284434.17425,3,1,-51.7578125,14.6484375,20.01953125,-16.11328125,0.0,0
1586284434.1781561,3,1,252.9296875,24.4140625,27.83203125,121.09375,0.0,0
1586284434.1820624,3,1,258.30078125,27.83203125,35.64453125,119.140625,0.0,0
1586284434.1859686,3,1,-42.48046875,32.2265625,42.96875,-6.34765625,0.0,0
1586284434.189875,3,1,-245.60546875,35.64453125,31.25,-105.46875,0.0,0
1586284434.1937811,3,1,-96.6796875,31.73828125,20.5078125,-40.52734375,0.0,0
1586284434.1976874,3,1,202.63671875,21.484375,6.8359375,87.890625,0.0,0
1586284434.2015936,3,1,261.71875,19.53125,4.39453125,107.421875,0.0,0
1586284434.2055,3,1,-1.953125,33.69140625,31.73828125,8.7890625,0.0,0
1586284434.2094061,3,1,-250.0,26.85546875,28.3203125,-116.69921875,0.0,0
1586284434.2133124,3,1,-132.8125,8.7890625,6.8359375,-88.37890625,0.0,0
1586284434.2172186,3,1,189.453125,9.27734375,7.8125,60.05859375,0.0,0
1586284434.221125,3,1,283.69140625,19.53125,9.765625,104.00390625,0.0,0
1586284434.2250311,3,1,26.85546875,21.97265625,6.34765625,-21.484375,0.0,0
1586284434.2289374,3,1,-240.72265625,21.484375,16.11328125,-141.6015625,0.0,0
1586284434.2328436,3,1,-158.203125,21.484375,25.390625,-89.35546875,0.0,0
1586284434.23675,3,1,161.1328125,24.4140625,21.97265625,62.5,0.0,0
1586284434.2406561,3,1,261.23046875,23.92578125,17.578125,94.23828125,0.0,0
1586284434.2445624,3,1,56.640625,22.94921875,16.11328125,2.44140625,0.0,0
1586284434.2484686,3,1,-205.078125,29.78515625,25.390625,-103.515625,0.0,0
1586284434.252375,3,1,-183.10546875,31.25,30.76171875,-77.63671875,0.0,0
1586284434.2562811,3,1,115.72265625,22.94921875,8.7890625,45.8984375,0.0,0
1586284434.2601874,3,1,301.7578125,26.3671875,14.6484375,116.2109375,0.0,0
1586284434.2640936,3,1,126.953125,34.66796875,32.71484375,49.8046875,0.0,0
1586284434.268,3,1,-193.359375,25.390625,22.94921875,-90.8203125,0.0,0
1586284434.2719061,3,1,-219.23828125,19.04296875,13.18359375,-105.46875,0.0,0
1586284434.2758124,3,1,78.61328125,21.97265625,21.484375,34.66796875,0.0,0
1586284434.2797186,3,1,302.24609375,27.34375,30.76171875,137.20703125,0.0,0
1586284434.283625,3,1,146.97265625,19.53125,19.53125,59.08203125,0.0,0
1586284434.2875311,3,1,-179.19921875,18.06640625,20.99609375,-83.984375,0.0,0
1586284434.2914374,3,1,-231.93359375,14.6484375,33.69140625,-98.14453125,0.0,0
1586284434.2953436,3,1,48.828125,13.18359375,30.76171875,37.59765625,0.0,0
1586284434.29925,3,1,283.69140625,15.13671875,15.625,121.09375,0.0,0
1586284434.3031561,3,1,183.59375,14.16015625,9.765625,58.10546875,0.0,0
1586284434.3070624,3,1,-126.46484375,25.87890625,19.53125,-63.96484375,0.0,0
1586284434.3109686,3,1,-241.2109375,29.78515625,17.578125,-107.421875,0.0,0
1586284434.314875,3,1,-0.48828125,22.4609375,4.8828125,-9.27734375,0.0,0
1586284434.3187811,3,1,282.2265625,21.484375,17.08984375,104.98046875,0.0,0
1586284434.3226874,3,1,236.328125,29.296875,38.57421875,82.03125,0.0,0
1586284434.3265936,3,1,-96.6796875,27.83203125,36.62109375,-67.87109375,0.0,0
1586284434.3305,3,1,-260.7421875,16.6015625,30.2734375,-137.6953125,0.0,0
1586284434.3344061,3,1,-31.73828125,17.08984375,29.296875,-21.484375,0.0,0
1586284434.3383124,3,1,263.671875,35.15625,33.69140625,123.046875,0.0,0
1586284434.3422186,3,1,253.41796875,46.38671875,39.55078125,119.62890625,0.0,0
1586284434.346125,3,1,-71.77734375,24.90234375,15.625,-53.7109375,0.0,0
1586284434.3500311,3,1,-260.7421875,20.01953125,11.71875,-138.18359375,0.0,0
1586284434.3539374,3,1,-62.01171875,31.73828125,26.3671875,-24.90234375,0.0,0
1586284434.3578436,3,1,247.0703125,31.25,20.99609375,99.609375,0.0,0
1586284434.36175,3,1,264.16015625,30.2734375,25.390625,96.19140625,0.0,0
1586284434.3656561,3,1,-11.23046875,33.69140625,35.64453125,-12.6953125,0.0,0
1586284434.3695624,3,1,-244.62890625,26.85546875,32.2265625,-100.09765625,0.0,0
1586284434.3734686,3,1,-130.37109375,20.01953125,28.3203125,-44.921875,0.0,0
1586284434.377375,3,1,187.01171875,20.99609375,11.71875,80.56640625,0.0,0
1586284434.3812811,3,1,279.296875,18.5546875,5.859375,117.1875,0.0,0
1586284434.3851874,3,1,12.20703125,22.94921875,20.99609375,25.390625,0.0,0
1586284434.3890936,3,1,-272.94921875,18.06640625,16.11328125,-104.00390625,0.0,0
1586284434.393,3,1,-187.01171875,10.7421875,2.9296875,-94.23828125,0.0,0
1586284434.3969061,3,1,146.97265625,21.484375,14.16015625,59.08203125,0.0,0
1586284434.4008124,3,1,284.66796875,30.2734375,19.53125,130.37109375,0.0,0
1586284434.4047186,3,1,52.24609375,22.94921875,25.87890625,9.765625,0.0,0
1586284434.408625,3,1,-233.88671875,17.578125,33.203125,-115.234375,0.0,0
1586284434.4125311,3,1,-198.73046875,19.04296875,18.5546875,-87.890625,0.0,0
1586284434.4164374,3,1,112.3046875,23.92578125,14.6484375,50.29296875,0.0,0
1586284434.4203436,3,1,301.26953125,24.4140625,20.01953125,124.51171875,0.0,0
1586284434.42425,3,1,118.1640625,24.4140625,21.97265625,28.3203125,0.0,0
1586284434.4281561,3,1,-177.24609375,30.76171875,29.296875,-84.47265625,0.0,0
1586284434.4320624,3,1,-180.17578125,32.71484375,37.59765625,-62.01171875,0.0,0
1586284434.4359686,3,1,101.5625,28.3203125,14.6484375,30.76171875,0.0,0
1586284434.439875,3,1,306.640625,26.85546875,5.859375,110.3515625,0.0,0
1586284434.4437811,3,1,150.87890625,19.04296875,21.484375,42.96875,0.0,0
1586284434.4476874,3,1,-169.921875,13.18359375,21.484375,-102.5390625,0.0,0
1586284434.4515936,3,1,-224.12109375,11.71875,12.6953125,-110.83984375,0.0,0
1586284434.4555,3,1,60.546875,18.06640625,11.23046875,25.390625,0.0,0
1586284434.4594061,3,1,304.19921875,20.5078125,16.6015625,136.71875,0.0,0
1586284434.4633124,3,1,183.59375,25.390625,16.6015625,78.61328125,0.0,0
1586284434.4672186,3,1,-140.13671875,27.83203125,15.13671875,-78.61328125,0.0,0
1586284434.471125,3,1,-246.58203125,17.578125,9.765625,-125.0,0.0,0
1586284434.4750311,3,1,16.11328125,26.3671875,14.6484375,11.23046875,0.0,0
1586284434.4789374,3,1,288.57421875,28.3203125,18.06640625,125.48828125,0.0,0
1586284434.4828436,3,1,208.984375,18.06640625,16.6015625,71.77734375,0.0,0
1586284434.48675,3,1,-110.3515625,16.6015625,16.6015625,-69.3359375,0.0,0
1586284434.4906561,3,1,-244.62890625,16.6015625,24.4140625,-111.328125,0.0,0
1586284434.4945624,3,1,-38.57421875,10.7421875,14.16015625,-22.4609375,0.0,0
1586284434.4984686,3,1,246.09375,13.18359375,3.41796875,99.609375,0.0,0
1586284434.502375,3,1,233.3984375,19.53125,6.8359375,97.65625,0.0,0
1586284434.5062811,3,1,-82.51953125,16.6015625,1.46484375,-41.9921875,0.0,0
1586284434.5101874,3,1,-276.3671875,14.16015625,-4.39453125,-131.8359375,0.0,0
1586284434.5140936,3,1,-86.42578125,15.625,-1.953125,-47.36328125,0.0,0
1586284434.518,3,1,222.16796875,21.484375,6.8359375,104.00390625,0.0,0
1586284434.5219061,3,1,244.140625,26.85546875,10.7421875,110.83984375,0.0,0
1586284434.5258124,3,1,-61.03515625,10.7421875,-0.48828125,-53.7109375,0.0,0
1586284434.5297186,3,1,-290.52734375,-0.9765625,-10.7421875,-157.71484375,0.0,0
1586284434.533625,3,1,-130.859375,11.71875,6.34765625,-61.5234375,0.0,0
1586284434.5375311,3,1,181.640625,15.13671875,18.5546875,85.9375,0.0,0
1586284434.5414374,3,1,241.69921875,5.37109375,9.27734375,94.7265625,0.0,0
1586284434.5453436,3,1,-22.4609375,15.13671875,7.8125,-27.83203125,0.0,0
1586284434.54925,3,1,-258.7890625,29.296875,18.06640625,-123.046875,0.0,0
1586284434.5531561,3,1,-155.76171875,23.92578125,9.765625,-77.1484375,0.0,0
1586284434.5570624,3,1,173.33984375,15.625,2.44140625,69.82421875,0.0,0
1586284434.5609686,3,1,294.43359375,24.90234375,11.71875,126.953125,0.0,0
1586284434.564875,3,1,36.1328125,27.83203125,13.671875,12.20703125,0.0,0
1586284434.5687811,3,1,-230.46875,21.484375,13.18359375,-100.5859375,0.0,0
1586284434.5726874,3,1,-174.8046875,17.08984375,1.953125,-85.9375,0.0,0
1586284434.5765936,3,1,147.4609375,21.97265625,3.41796875,51.7578125,0.0,0
1586284434.5805,3,1,343.75,33.203125,26.3671875,148.4375,0.0,0
1586284434.5844061,3,1,129.8828125,18.5546875,11.71875,40.52734375,0.0,0
1586284434.5883124,3,1,-182.12890625,14.6484375,3.41796875,-101.5625,0.0,0
1586284434.5922186,3,1,-159.1796875,23.4375,17.578125,-75.68359375,0.0,0
1586284434.596125,3,1,163.57421875,22.94921875,22.4609375,73.73046875,0.0,0
1586284434.6000311,3,1,381.8359375,27.34375,20.01953125,161.62109375,0.0,0
1586284434.6039374,3,1,215.33203125,20.5078125,8.30078125,62.5,0.0,0
1586284434.6078436,3,1,-83.0078125,18.5546875,16.11328125,-71.77734375,0.0,0
1586284434.61175,3,1,-103.515625,28.80859375,25.87890625,-67.3828125,0.0,0
1586284434.6156561,3,1,177.734375,26.3671875,16.6015625,55.17578125,0.0,0
1586284434.6195624,3,1,406.25,7.32421875,7.32421875,135.7421875,0.0,0
1586284434.6234686,3,1,304.6875,14.6484375,8.7890625,86.42578125,0.0,0
1586284434.627375,3,1,0.9765625,31.73828125,24.4140625,-33.203125,0.0,0
1586284434.6312811,3,1,-108.88671875,17.578125,13.18359375,-107.421875,0.0,0
1586284434.6351874,3,1,163.57421875,20.99609375,11.23046875,4.39453125,0.0,0
1586284434.6390936,3,1,449.70703125,28.3203125,13.18359375,124.0234375,0.0,0
1586284434.643,3,1,357.91015625,28.80859375,2.44140625,65.4296875,0.0,0
1586284434.6469061,3,1,28.80859375,34.66796875,-0.9765625,-85.44921875,0.0,0
1586284434.6508124,3,1,-94.23828125,41.9921875,16.11328125,-131.34765625,0.0,0
1586284434.6547186,3,1,136.23046875,47.36328125,29.296875,-3.90625,0.0,0
1586284434.658625,3,1,410.64453125,35.64453125,17.578125,125.0,0.0,0
1586284434.6625311,3,1,359.375,25.87890625,9.27734375,104.98046875,0.0,0
1586284434.6664374,3,1,58.10546875,22.4609375,15.625,-29.78515625,0.0,0
1586284434.6703436,3,1,-96.19140625,20.99609375,25.390625,-88.8671875,0.0,0
1586284434.67425,3,1,70.3125,17.578125,20.5078125,-17.08984375,0.0,0
1586284434.6781561,3,1,352.05078125,10.25390625,15.13671875,83.0078125,0.0,0
1586284434.6820624,3,1,363.76953125,13.18359375,14.6484375,98.14453125,0.0,0
1586284434.6859686,3,1,69.3359375,24.4140625,26.85546875,-12.6953125,0.0,0
1586284434.689875,3,1,-152.34375,26.3671875,31.25,-115.234375,0.0,0
1586284434.6937811,3,1,-7.32421875,23.4375,22.4609375,-52.24609375,0.0,0
1586284434.6976874,3,1,314.453125,25.87890625,26.3671875,101.07421875,0.0,0
1586284434.7015936,3,1,371.58203125,23.92578125,34.1796875,127.9296875,0.0,0
1586284434.7055,3,1,97.65625,14.16015625,29.296875,-0.48828125,0.0,0
1586284434.7094061,3,1,-146.97265625,14.6484375,31.25,-104.4921875,0.0,0
1586284434.7133124,3,1,-36.1328125,21.97265625,36.1328125,-55.17578125,0.0,0
1586284434.7172186,3,1,283.203125,28.3203125,38.0859375,104.98046875,0.0,0
1586284434.721125,3,1,356.93359375,17.08984375,17.08984375,124.51171875,0.0,0
1586284434.7250311,3,1,102.05078125,13.671875,13.18359375,-3.90625,0.0,0
1586284434.7289374,3,1,-153.3203125,20.5078125,20.5078125,-105.95703125,0.0,0
1586284434.7328436,3,1,-89.35546875,24.4140625,14.16015625,-69.3359375,0.0,0
1586284434.73675,3,1,221.19140625,22.4609375,19.04296875,78.125,0.0,0
1586284434.7406561,3,1,376.46484375,22.94921875,16.6015625,136.71875,0.0,0
1586284434.7445624,3,1,173.828125,32.71484375,19.04296875,48.828125,0.0,0
1586284434.7484686,3,1,-131.34765625,19.53125,26.3671875,-88.8671875,0.0,0
1586284434.752375,3,1,-121.58203125,9.765625,30.2734375,-93.26171875,0.0,0
1586284434.7562811,3,1,183.10546875,18.5546875,39.55078125,59.08203125,0.0,0
1586284434.7601874,3,1,371.09375,30.76171875,40.52734375,155.76171875,0.0,0
1586284434.7640936,3,1,176.26953125,24.4140625,23.4375,54.19921875,0.0,0
1586284434.768,3,1,-144.53125,12.20703125,15.13671875,-114.2578125,0.0,0
1586284434.7719061,3,1,-168.45703125,19.53125,22.4609375,-107.421875,0.0,0
1586284434.7758124,3,1,138.18359375,26.85546875,22.94921875,58.10546875,0.0,0
1586284434.7797186,3,1,342.7734375,26.3671875,18.06640625,134.765625,0.0,0
1586284434.783625,3,1,199.70703125,19.04296875,22.4609375,53.7109375,0.0,0
1586284434.7875311,3,1,-98.14453125,23.92578125,36.1328125,-67.3828125,0.0,0
1586284434.7914374,3,1,-183.10546875,24.90234375,32.71484375,-100.5859375,0.0,0
1586284434.7953436,3,1,69.82421875,16.6015625,24.90234375,7.8125,0.0,0
1586284434.79925,3,1,316.89453125,12.20703125,23.92578125,104.98046875,0.0,0
1586284434.8031561,3,1,233.88671875,22.94921875,32.2265625,76.66015625,0.0,0
1586284434.8070624,3,1,-76.171875,29.78515625,43.9453125,-38.57421875,0.0,0
1586284434.8109686,3,1,-220.703125,3.90625,19.53125,-128.41796875,0.0,0
1586284434.814875,3,1,20.99609375,6.8359375,12.6953125,-19.04296875,0.0,0
1586284434.8187811,3,1,322.265625,27.34375,30.76171875,122.55859375,0.0,0
1586284434.8226874,3,1,264.6484375,28.3203125,32.71484375,83.984375,0.0,0
1586284434.8265936,3,1,-62.01171875,30.2734375,29.296875,-53.7109375,0.0,0
1586284434.8305,3,1,-229.00390625,27.83203125,31.73828125,-121.09375,0.0,0
1586284434.8344061,3,1,-23.92578125,20.99609375,31.25,-25.87890625,0.0,0
1586284434.8383124,3,1,263.671875,19.04296875,25.390625,99.609375,0.0,0
1586284434.8422186,3,1,258.7890625,20.5078125,29.78515625,88.37890625,0.0,0
1586284434.846125,3,1,-33.203125,16.11328125,27.34375,-50.78125,0.0,0
1586284434.8500311,3,1,-229.4921875,18.5546875,31.73828125,-115.234375,0.0,0
1586284434.8539374,3,1,-89.35546875,26.3671875,36.62109375,-40.52734375,0.0,0
1586284434.8578436,3,1,207.03125,20.99609375,21.484375,68.359375,0.0,0
1586284434.86175,3,1,268.06640625,24.4140625,15.13671875,99.12109375,0.0,0
1586284434.8656561,3,1,-3.41796875,35.64453125,31.25,-2.44140625,0.0,0
1586284434.8695624,3,1,-258.7890625,25.390625,21.97265625,-136.23046875,0.0,0
1586284434.8734686,3,1,-156.73828125,13.18359375,15.13671875,-94.7265625,0.0,0
1586284434.877375,3,1,166.9921875,15.13671875,25.390625,73.2421875,0.0,0
1586284434.8812811,3,1,274.90234375,16.6015625,32.71484375,124.0234375,0.0,0
1586284434.8851874,3,1,15.13671875,12.20703125,16.6015625,-23.4375,0.0,0
1586284434.8890936,3,1,-236.81640625,16.11328125,20.01953125,-134.27734375,0.0,0
1586284434.893,3,1,-95.21484375,28.80859375,41.015625,-46.38671875,0.0,0
1586284434.8969061,3,1,193.359375,26.3671875,34.1796875,79.1015625,0.0,0
1586284434.9008124,3,1,296.38671875,16.6015625,23.4375,108.3984375,0.0,0
1586284434.9047186,3,1,80.078125,10.7421875,15.13671875,-6.8359375,0.0,0
1586284434.908625,3,1,-210.44921875,19.53125,21.484375,-126.953125,0.0,0
1586284434.9125311,3,1,-178.7109375,32.71484375,24.90234375,-93.75,0.0,0
1586284434.9164374,3,1,108.88671875,16.6015625,11.23046875,17.578125,0.0,0
1586284434.9203436,3,1,277.34375,9.765625,5.859375,90.8203125,0.0,0
1586284434.92425,3,1,103.515625,21.97265625,18.5546875,25.390625,0.0,0
1586284434.9281561,3,1,-197.75390625,19.04296875,29.296875,-111.81640625,0.0,0
1586284434.9320624,3,1,-220.21484375,14.6484375,30.76171875,-107.91015625,0.0,0
1586284434.9359686,3,1,67.3828125,18.5546875,21.97265625,33.69140625,0.0,0
1586284434.939875,3,1,285.64453125,24.4140625,22.94921875,115.72265625,0.0,0
1586284434.9437811,3,1,143.5546875,23.92578125,35.15625,42.96875,0.0,0
1586284434.9476874,3,1,-177.24609375,18.06640625,30.2734375,-95.703125,0.0,0
1586284434.9515936,3,1,-236.328125,20.99609375,27.83203125,-104.4921875,0.0,0
1586284434.9555,3,1,45.41015625,28.80859375,32.71484375,31.25,0.0,0
1586284434.9594061,3,1,282.71484375,21.484375,26.3671875,115.234375,0.0,0
1586284434.9633124,3,1,181.15234375,10.7421875,24.90234375,46.875,0.0,0
1586284434.9672186,3,1,-133.7890625,14.16015625,28.80859375,-82.51953125,0.0,0
1586284434.971125,3,1,-234.375,28.80859375,37.59765625,-86.9140625,0.0,0
1586284434.9750311,3,1,-9.27734375,18.06640625,21.97265625,-0.9765625,0.0,0
1586284434.9789374,3,1,247.55859375,3.90625,6.8359375,86.42578125,0.0,0
1586284434.9828436,3,1,203.61328125,16.11328125,22.4609375,76.66015625,0.0,0
1586284434.98675,3,1,-102.05078125,22.94921875,32.2265625,-58.10546875,0.0,0
1586284434.9906561,3,1,-246.09375,19.04296875,30.76171875,-115.234375,0.0,0
1586284434.9945624,3,1,-37.109375,20.01953125,24.90234375,-24.90234375,0.0,0
1586284434.9984686,3,1,257.32421875,19.04296875,37.59765625,104.00390625,0.0,0
1586284435.002375,3,1,249.0234375,18.06640625,56.15234375,116.69921875,0.0,0
1586284435.0062811,3,1,-75.1953125,19.53125,31.25,-54.19921875,0.0,0
1586284435.0101874,3,1,-269.53125,21.97265625,19.53125,-151.3671875,0.0,0
1586284435.0140936,3,1,-87.40234375,27.34375,26.3671875,-51.26953125,0.0,0
1586284435.018,3,1,210.44921875,20.01953125,22.94921875,78.61328125,0.0,0
1586284435.0219061,3,1,235.83984375,14.16015625,9.27734375,78.125,0.0,0
1586284435.0258124,3,1,-29.78515625,20.5078125,6.8359375,-33.69140625,0.0,0
1586284435.0297186,3,1,-256.34765625,19.04296875,22.4609375,-125.9765625,0.0,0
1586284435.033625,3,1,-140.13671875,11.71875,19.53125,-79.58984375,0.0,0
1586284435.0375311,3,1,182.6171875,9.27734375,13.671875,68.359375,0.0,0
1586284435.0414374,3,1,270.01953125,12.6953125,19.53125,110.3515625,0.0,0
1586284435.0453436,3,1,7.8125,19.04296875,18.06640625,-4.39453125,0.0,0
1586284435.04925,3,1,-263.18359375,14.6484375,8.30078125,-117.1875,0.0,0
1586284435.0531561,3,1,-175.78125,15.13671875,7.32421875,-76.171875,0.0,0
1586284435.0570624,3,1,156.73828125,20.5078125,17.578125,59.5703125,0.0,0
1586284435.0609686,3,1,292.48046875,25.390625,31.73828125,122.55859375,0.0,0
1586284435.064875,3,1,49.31640625,17.578125,21.97265625,9.765625,0.0,0
1586284435.0687811,3,1,-230.95703125,5.859375,13.18359375,-124.0234375,0.0,0
1586284435.0726874,3,1,-181.15234375,9.765625,20.5078125,-84.47265625,0.0,0
1586284435.0765936,3,1,123.53515625,20.01953125,28.3203125,55.17578125,0.0,0
1586284435.0805,3,1,290.0390625,23.4375,26.3671875,106.93359375,0.0,0
1586284435.0844061,3,1,100.5859375,26.3671875,25.87890625,19.53125,0.0,0
1586284435.0883124,3,1,-199.70703125,26.85546875,28.80859375,-96.6796875,0.0,0
1586284435.0922186,3,1,-208.0078125,20.5078125,17.08984375,-95.703125,0.0,0
1586284435.096125,3,1,70.80078125,12.6953125,-2.9296875,10.7421875,0.0,0
1586284435.1000311,3,1,279.296875,20.01953125,4.8828125,99.609375,0.0,0
1586284435.1039374,3,1,130.859375,22.4609375,11.23046875,43.45703125,0.0,0
1586284435.1078436,3,1,-187.5,23.92578125,7.8125,-97.16796875,0.0,0
1586284435.11175,3,1,-244.140625,18.5546875,-2.9296875,-139.6484375,0.0,0
1586284435.1156561,3,1,39.55078125,15.13671875,-4.8828125,-7.8125,0.0,0
1586284435.1195624,3,1,281.25,28.3203125,11.23046875,120.1171875,0.0,0
1586284435.1234686,3,1,151.85546875,28.3203125,10.7421875,65.91796875,0.0,0
1586284435.127375,3,1,-164.55078125,21.97265625,4.39453125,-90.8203125,0.0,0
1586284435.1312811,3,1,-232.421875,26.3671875,16.6015625,-113.76953125,0.0,0
1586284435.1351874,3,1,0.48828125,27.83203125,26.3671875,4.8828125,0.0,0
1586284435.1390936,3,1,236.328125,22.94921875,20.99609375,102.5390625,0.0,0
1586284435.143,3,1,165.52734375,10.7421875,4.39453125,44.921875,0.0,0
1586284435.1469061,3,1,-122.55859375,11.71875,6.34765625,-69.3359375,0.0,0
1586284435.1508124,3,1,-250.48828125,21.97265625,14.16015625,-103.515625,0.0,0
1586284435.1547186,3,1,-47.36328125,20.01953125,13.18359375,-20.01953125,0.0,0
1586284435.158625,3,1,239.74609375,18.06640625,14.16015625,102.5390625,0.0,0
1586284435.1625311,3,1,214.35546875,12.20703125,16.11328125,98.6328125,0.0,0
1586284435.1664374,3,1,-92.7734375,9.27734375,17.08984375,-36.1328125,0.0,0
1586284435.1703436,3,1,-270.5078125,14.16015625,14.16015625,-128.90625,0.0,0
1586284435.17425,3,1,-82.03125,20.01953125,9.27734375,-40.0390625,0.0,0
1586284435.1781561,3,1,239.74609375,25.390625,20.99609375,112.79296875,0.0,0
1586284435.1820624,3,1,258.7890625,29.296875,34.1796875,134.27734375,0.0,0
1586284435.1859686,3,1,-57.12890625,16.11328125,16.11328125,-30.2734375,0.0,0
1586284435.189875,3,1,-264.16015625,15.625,16.11328125,-134.27734375,0.0,0
1586284435.1937811,3,1,-113.76953125,24.4140625,24.4140625,-55.6640625,0.0,0
1586284435.1976874,3,1,190.4296875,16.6015625,5.859375,65.91796875,0.0,0
1586284435.2015936,3,1,258.7890625,14.6484375,1.46484375,93.26171875,0.0,0
1586284435.2055,3,1,-8.30078125,23.4375,16.11328125,-16.6015625,0.0,0
1586284435.2094061,3,1,-252.44140625,26.3671875,32.2265625,-117.67578125,0.0,0
1586284435.2133124,3,1,-158.203125,20.5078125,36.1328125,-69.3359375,0.0,0
1586284435.2172186,3,1,160.64453125,24.4140625,37.109375,74.70703125,0.0,0
1586284435.221125,3,1,276.3671875,18.5546875,29.78515625,110.83984375,0.0,0
1586284435.2250311,3,1,28.80859375,18.06640625,33.203125,15.625,0.0,0
1586284435.2289374,3,1,-244.140625,30.76171875,35.15625,-95.703125,0.0,0
1586284435.2328436,3,1,-191.89453125,23.92578125,27.83203125,-83.984375,0.0,0
1586284435.23675,3,1,130.37109375,20.99609375,35.64453125,78.61328125,0.0,0
1586284435.2406561,3,1,298.33984375,31.73828125,41.50390625,168.45703125,0.0,0
1586284435.2445624,3,1,73.2421875,22.94921875,22.4609375,47.8515625,0.0,0
1586284435.2484686,3,1,-219.23828125,15.625,6.34765625,-100.09765625,0.0,0
1586284435.252375,3,1,-198.73046875,17.578125,8.30078125,-83.0078125,0.0,0
1586284435.2562811,3,1,84.9609375,13.671875,8.30078125,53.7109375,0.0,0
1586284435.2601874,3,1,272.94921875,9.27734375,7.8125,125.48828125,0.0,0
1586284435.2640936,3,1,123.53515625,19.04296875,5.37109375,49.8046875,0.0,0
1586284435.268,3,1,-173.828125,32.71484375,12.6953125,-76.66015625,0.0,0
1586284435.2719061,3,1,-220.703125,34.66796875,18.5546875,-94.23828125,0.0,0
1586284435.2758124,3,1,53.7109375,32.2265625,17.578125,23.92578125,0.0,0
1586284435.2797186,3,1,270.5078125,18.5546875,9.27734375,106.93359375,0.0,0
1586284435.283625,3,1,145.99609375,20.01953125,12.20703125,60.05859375,0.0,0
1586284435.2875311,3,1,-171.875,29.78515625,17.08984375,-63.96484375,0.0,0
1586284435.2914374,3,1,-270.5078125,16.6015625,0.48828125,-127.9296875,0.0,0
1586284435.2953436,3,1,-8.30078125,13.671875,4.8828125,-7.8125,0.0,0
1586284435.29925,3,1,255.859375,8.30078125,11.71875,125.0,0.0,0
1586284435.3031561,3,1,167.48046875,3.90625,6.8359375,76.66015625,0.0,0
1586284435.3070624,3,1,-149.4140625,11.71875,7.32421875,-78.125,0.0,0
1586284435.3109686,3,1,-265.13671875,19.04296875,20.5078125,-109.86328125,0.0,0
1586284435.314875,3,1,-39.0625,17.578125,23.92578125,-0.9765625,0.0,0
1586284435.3187811,3,1,240.234375,11.71875,23.4375,114.74609375,0.0,0
1586284435.3226874,3,1,200.68359375,4.39453125,19.04296875,86.42578125,0.0,0
1586284435.3265936,3,1,-96.19140625,10.25390625,27.83203125,-54.6875,0.0,0
1586284435.3305,3,1,-250.48828125,21.97265625,41.9921875,-96.6796875,0.0,0
1586284435.3344061,3,1,-76.66015625,9.27734375,14.6484375,-16.11328125,0.0,0
1586284435.3383124,3,1,215.33203125,5.37109375,5.859375,102.05078125,0.0,0
1586284435.3422186,3,1,228.02734375,18.5546875,19.53125,117.67578125,0.0,0
1586284435.346125,3,1,-57.12890625,29.296875,26.85546875,2.9296875,0.0,0
1586284435.3500311,3,1,-270.99609375,22.4609375,10.25390625,-118.65234375,0.0,0
1586284435.3539374,3,1,-123.53515625,16.11328125,-0.9765625,-66.40625,0.0,0
1586284435.3578436,3,1,188.4765625,20.99609375,10.25390625,79.1015625,0.0,0
1586284435.36175,3,1,221.6796875,20.5078125,9.765625,80.078125,0.0,0
1586284435.3656561,3,1,-36.1328125,20.99609375,5.37109375,-41.015625,0.0,0
1586284435.3695624,3,1,-258.30078125,21.484375,3.41796875,-140.13671875,0.0,0
1586284435.3734686,3,1,-144.53125,19.04296875,8.7890625,-67.3828125,0.0,0
1586284435.377375,3,1,168.9453125,15.625,7.32421875,90.8203125,0.0,0
1586284435.3812811,3,1,253.90625,1.953125,-5.859375,104.4921875,0.0,0
1586284435.3851874,3,1,16.11328125,10.25390625,1.953125,2.9296875,0.0,0
1586284435.3890936,3,1,-242.1875,26.3671875,18.5546875,-94.23828125,0.0,0
1586284435.393,3,1,-187.5,9.765625,12.6953125,-69.82421875,0.0,0
1586284435.3969061,3,1,126.953125,1.46484375,7.8125,72.75390625,0.0,0
1586284435.4008124,3,1,279.296875,10.25390625,15.13671875,143.06640625,0.0,0
1586284435.4047186,3,1,69.82421875,18.06640625,22.94921875,45.8984375,0.0,0
1586284435.408625,3,1,-225.09765625,16.11328125,15.625,-104.98046875,0.0,0
1586284435.4125311,3,1,-204.58984375,12.20703125,18.06640625,-98.14453125,0.0,0
1586284435.4164374,3,1,93.26171875,5.859375,16.6015625,45.8984375,0.0,0
1586284435.4203436,3,1,275.390625,7.32421875,15.625,120.1171875,0.0,0
1586284435.42425,3,1,87.890625,13.671875,16.11328125,20.99609375,0.0,0
1586284435.4281561,3,1,-211.42578125,16.6015625,12.6953125,-116.69921875,0.0,0
1586284435.4320624,3,1,-224.12109375,24.4140625,10.25390625,-105.95703125,0.0,0
1586284435.4359686,3,1,56.15234375,26.85546875,8.30078125,26.3671875,0.0,0
1586284435.439875,3,1,276.85546875,13.18359375,12.6953125,113.76953125,0.0,0
1586284435.4437811,3,1,142.578125,7.32421875,11.23046875,49.8046875,0.0,0
1586284435.4476874,3,1,-167.96875,10.25390625,13.18359375,-84.47265625,0.0,0
1586284435.4515936,3,1,-240.72265625,10.7421875,10.7421875,-119.62890625,0.0,0
1586284435.4555,3,1,18.5546875,13.671875,13.671875,-6.8359375,0.0,0
1586284435.4594061,3,1,270.99609375,22.94921875,30.2734375,117.1875,0.0,0
1586284435.4633124,3,1,166.9921875,23.4375,38.0859375,72.75390625,0.0,0
1586284435.4672186,3,1,-160.64453125,11.71875,37.59765625,-85.9375,0.0,0
1586284435.471125,3,1,-275.390625,10.25390625,27.83203125,-141.6015625,0.0,0
1586284435.4750311,3,1,-29.78515625,13.18359375,20.01953125,-25.87890625,0.0,0
1586284435.4789374,3,1,255.859375,21.484375,26.3671875,121.09375,0.0,0
1586284435.4828436,3,1,204.58984375,18.5546875,28.3203125,108.3984375,0.0,0
1586284435.48675,3,1,-118.1640625,4.39453125,20.5078125,-64.453125,0.0,0
1586284435.4906561,3,1,-271.97265625,15.625,25.390625,-132.8125,0.0,0
1586284435.4945624,3,1,-74.70703125,18.06640625,26.85546875,-31.73828125,0.0,0
1586284435.4984686,3,1,210.9375,9.27734375,23.4375,94.7265625,0.0,0
1586284435.502375,3,1,210.9375,7.32421875,11.71875,76.66015625,0.0,0
1586284435.5062811,3,1,-73.73046875,13.18359375,8.7890625,-53.7109375,0.0,0
1586284435.5101874,3,1,-257.32421875,20.99609375,19.53125,-115.72265625,0.0,0
1586284435.5140936,3,1,-104.98046875,19.04296875,10.7421875,-53.22265625,0.0,0
1586284435.518,3,1,191.89453125,12.20703125,-7.32421875,69.3359375,0.0,0
1586284435.5219061,3,1,247.0703125,19.53125,-10.25390625,112.3046875,0.0,0
1586284435.5258124,3,1,-5.859375,26.3671875,10.25390625,12.6953125,0.0,0
1586284435.5297186,3,1,-241.69921875,11.23046875,12.20703125,-110.83984375,0.0,0
1586284435.533625,3,1,-138.18359375,16.11328125,-0.48828125,-68.84765625,0.0,0
1586284435.5375311,3,1,183.10546875,30.76171875,4.8828125,86.9140625,0.0,0
1586284435.5414374,3,1,268.06640625,28.80859375,16.11328125,123.046875,0.0,0
1586284435.5453436,3,1,5.37109375,21.97265625,7.32421875,-9.765625,0.0,0
1586284435.54925,3,1,-247.55859375,25.390625,6.8359375,-117.1875,0.0,0
1586284435.5531561,3,1,-170.41015625,29.296875,13.18359375,-62.01171875,0.0,0
1586284435.5570624,3,1,135.7421875,23.92578125,13.671875,87.40234375,0.0,0
1586284435.5609686,3,1,250.48828125,11.23046875,8.30078125,97.16796875,0.0,0
1586284435.564875,3,1,32.2265625,4.39453125,15.625,-20.01953125,0.0,0
1586284435.5687811,3,1,-245.1171875,10.7421875,27.34375,-121.58203125,0.0,0
1586284435.5726874,3,1,-225.09765625,15.13671875,20.01953125,-114.74609375,0.0,0
1586284435.5765936,3,1,76.171875,14.6484375,11.71875,19.53125,0.0,0
1586284435.5805,3,1,258.30078125,18.5546875,19.53125,111.328125,0.0,0
1586284435.5844061,3,1,84.47265625,20.99609375,28.3203125,40.0390625,0.0,0
1586284435.5883124,3,1,-202.63671875,17.08984375,23.4375,-81.54296875,0.0,0
1586284435.5922186,3,1,-208.0078125,22.4609375,10.7421875,-77.1484375,0.0,0
1586284435.596125,3,1,69.82421875,15.13671875,-3.90625,37.109375,0.0,0
1586284435.6000311,3,1,281.73828125,16.6015625,5.859375,133.30078125,0.0,0
1586284435.6039374,3,1,112.3046875,14.6484375,10.7421875,45.8984375,0.0,0
1586284435.6078436,3,1,-178.22265625,1.46484375,9.27734375,-92.28515625,0.0,0
1586284435.61175,3,1,-216.796875,4.8828125,6.8359375,-104.98046875,0.0,0
1586284435.6156561,3,1,48.33984375,16.11328125,12.20703125,20.01953125,0.0,0
1586284435.6195624,3,1,285.15625,16.11328125,14.6484375,110.3515625,0.0,0
1586284435.6234686,3,1,187.98828125,14.6484375,9.27734375,45.8984375,0.0,0
1586284435.627375,3,1,-100.09765625,22.94921875,6.34765625,-80.078125,0.0,0
1586284435.6312811,3,1,-196.77734375,22.94921875,0.0,-114.74609375,0.0,0
1586284435.6351874,3,1,47.8515625,9.27734375,-7.8125,-8.30078125,0.0,0
1586284435.6390936,3,1,312.98828125,-0.48828125,-12.20703125,108.3984375,0.0,0
1586284435.643,3,1,256.8359375,11.71875,-10.7421875,78.61328125,0.0,0
1586284435.6469061,3,1,-37.59765625,25.87890625,-2.44140625,-57.6171875,0.0,0
1586284435.6508124,3,1,-184.08203125,19.04296875,1.46484375,-120.60546875,0.0,0
1586284435.6547186,3,1,33.203125,17.08984375,-0.48828125,-17.578125,0.0,0
1586284435.658625,3,1,338.8671875,17.578125,8.7890625,119.62890625,0.0,0
1586284435.6625311,3,1,327.63671875,19.53125,15.13671875,131.34765625,0.0,0
1586284435.6664374,3,1,20.5078125,12.20703125,3.90625,-24.4140625,0.0,0
1586284435.6703436,3,1,-156.25,5.859375,5.37109375,-108.3984375,0.0,0
1586284435.67425,3,1,32.71484375,15.13671875,12.20703125,-9.27734375,0.0,0
1586284435.6781561,3,1,343.26171875,11.23046875,14.16015625,111.328125,0.0,0
1586284435.6820624,3,1,367.1875,5.37109375,20.01953125,120.60546875,0.0,0
1586284435.6859686,3,1,77.63671875,18.5546875,22.94921875,-1.46484375,0.0,0
1586284435.689875,3,1,-140.13671875,23.4375,21.484375,-103.515625,0.0,0
1586284435.6937811,3,1,-1.46484375,24.90234375,23.4375,-33.69140625,0.0,0
1586284435.6976874,3,1,288.0859375,19.04296875,10.7421875,95.703125,0.0,0
1586284435.7015936,3,1,349.12109375,10.7421875,0.0,117.1875,0.0,0
1586284435.7055,3,1,111.328125,24.4140625,20.01953125,29.296875,0.0,0
1586284435.7094061,3,1,-160.15625,19.53125,8.30078125,-96.6796875,0.0,0
1586284435.7133124,3,1,-84.9609375,5.859375,-10.7421875,-85.9375,0.0,0
1586284435.7172186,3,1,231.4453125,8.7890625,-0.48828125,66.89453125,0.0,0
1586284435.721125,3,1,339.84375,9.765625,7.8125,119.140625,0.0,0
1586284435.7250311,3,1,108.88671875,15.13671875,8.7890625,6.34765625,0.0,0
1586284435.7289374,3,1,-160.15625,23.92578125,13.18359375,-109.86328125,0.0,0
1586284435.7328436,3,1,-122.55859375,21.484375,10.7421875,-82.03125,0.0,0
1586284435.73675,3,1,172.8515625,20.01953125,14.16015625,58.10546875,0.0,0
1586284435.7406561,3,1,330.56640625,16.6015625,25.87890625,126.953125,0.0,0
1586284435.7445624,3,1,123.046875,4.39453125,18.06640625,14.6484375,0.0,0
1586284435.7484686,3,1,-168.45703125,2.44140625,13.18359375,-112.79296875,0.0,0
1586284435.752375,3,1,-152.34375,15.625,26.3671875,-72.265625,0.0,0
1586284435.7562811,3,1,116.69921875,8.30078125,3.41796875,30.76171875,0.0,0
1586284435.7601874,3,1,321.77734375,4.8828125,8.30078125,116.2109375,0.0,0
1586284435.7640936,3,1,177.24609375,15.625,32.2265625,63.4765625,0.0,0
1586284435.768,3,1,-144.53125,20.01953125,21.484375,-97.65625,0.0,0
1586284435.7719061,3,1,-186.03515625,18.06640625,3.90625,-122.0703125,0.0,0
1586284435.7758124,3,1,109.375,22.4609375,13.18359375,23.92578125,0.0,0
1586284435.7797186,3,1,337.890625,27.83203125,31.73828125,133.7890625,0.0,0
1586284435.783625,3,1,183.10546875,20.99609375,25.87890625,56.15234375,0.0,0
1586284435.7875311,3,1,-119.62890625,19.04296875,22.4609375,-82.51953125,0.0,0
1586284435.7914374,3,1,-203.125,17.08984375,18.06640625,-127.44140625,0.0,0
1586284435.7953436,3,1,36.62109375,20.01953125,15.13671875,-2.9296875,0.0,0
1586284435.79925,3,1,266.11328125,10.7421875,2.9296875,99.12109375,0.0,0
1586284435.8031561,3,1,183.59375,4.8828125,-4.39453125,42.96875,0.0,0
1586284435.8070624,3,1,-102.05078125,25.390625,12.6953125,-74.70703125,0.0,0
1586284435.8109686,3,1,-229.4921875,27.83203125,25.390625,-125.0,0.0,0
1586284435.814875,3,1,-31.73828125,11.71875,19.53125,-29.78515625,0.0,0
1586284435.8187811,3,1,250.9765625,10.25390625,19.53125,97.65625,0.0,0
1586284435.8226874,3,1,239.2578125,19.53125,20.01953125,88.8671875,0.0,0
1586284435.8265936,3,1,-61.5234375,26.85546875,13.671875,-55.17578125,0.0,0
1586284435.8305,3,1,-240.72265625,27.83203125,17.08984375,-137.6953125,0.0,0
1586284435.8344061,3,1,-54.6875,20.01953125,30.2734375,-36.1328125,0.0,0
1586284435.8383124,3,1,245.60546875,15.625,39.0625,100.09765625,0.0,0
1586284435.8422186,3,1,256.8359375,23.92578125,32.71484375,98.14453125,0.0,0
1586284435.846125,3,1,-32.71484375,22.94921875,20.99609375,-42.48046875,0.0,0
1586284435.8500311,3,1,-249.0234375,10.7421875,8.30078125,-145.5078125,0.0,0
1586284435.8539374,3,1,-103.02734375,7.8125,19.04296875,-65.91796875,0.0,0
1586284435.8578436,3,1,204.58984375,14.16015625,38.57421875,95.703125,0.0,0
1586284435.86175,3,1,238.76953125,5.37109375,22.94921875,93.75,0.0,0
1586284435.8656561,3,1,-16.11328125,8.7890625,20.99609375,-34.66796875,0.0,0
1586284435.8695624,3,1,-240.72265625,18.5546875,31.73828125,-121.09375,0.0,0
1586284435.8734686,3,1,-155.76171875,11.71875,21.484375,-83.0078125,0.0,0
1586284435.877375,3,1,144.53125,4.39453125,17.08984375,43.9453125,0.0,0
1586284435.8812811,3,1,263.18359375,-2.9296875,26.85546875,103.02734375,0.0,0
1586284435.8851874,3,1,29.78515625,-0.48828125,24.90234375,-2.44140625,0.0,0
1586284435.8890936,3,1,-252.9296875,2.9296875,6.8359375,-134.765625,0.0,0
1586284435.893,3,1,-197.265625,-3.90625,0.48828125,-113.76953125,0.0,0
1586284435.8969061,3,1,99.12109375,0.0,10.7421875,40.52734375,0.0,0
1586284435.9008124,3,1,265.625,13.18359375,25.390625,139.16015625,0.0,0
1586284435.9047186,3,1,62.98828125,16.6015625,15.13671875,34.66796875,0.0,0
1586284435.908625,4,1,-242.67578125,11.23046875,1.953125,-125.0,0.0,0
1586284435.9125311,4,1,-219.23828125,10.7421875,14.16015625,-102.05078125,0.0,0
1586284435.9164374,4,1,80.078125,12.20703125,19.04296875,42.48046875,0.0,0
1586284435.9203436,4,1,262.6953125,12.6953125,14.16015625,100.5859375,0.0,0
1586284435.92425,4,1,96.19140625,17.578125,15.625,13.18359375,0.0,0
1586284435.9281561,4,1,-209.9609375,18.5546875,22.94921875,-92.7734375,0.0,0
1586284435.9320624,4,1,-242.1875,18.06640625,17.08984375,-86.9140625,0.0,0
1586284435.9359686,4,1,20.99609375,10.25390625,-1.953125,4.8828125,0.0,0
1586284435.939875,4,1,236.81640625,7.8125,0.0,98.6328125,0.0,0
1586284435.9437811,4,1,122.0703125,12.6953125,18.06640625,68.84765625,0.0,0
1586284435.9476874,4,1,-182.12890625,14.16015625,17.578125,-67.3828125,0.0,0
1586284435.9515936,4,1,-255.859375,10.25390625,0.48828125,-113.76953125,0.0,0
1586284435.9555,4,1,-8.7890625,17.08984375,4.8828125,5.37109375,0.0,0
1586284435.9594061,4,1,239.74609375,22.4609375,14.6484375,117.1875,0.0,0
1586284435.9633124,4,1,154.296875,20.01953125,11.71875,60.546875,0.0,0
1586284435.9672186,4,1,-154.296875,17.08984375,10.7421875,-86.42578125,0.0,0
1586284435.971125,4,1,-265.625,15.625,9.27734375,-132.32421875,0.0,0
1586284435.9750311,4,1,-34.66796875,15.625,13.18359375,-10.7421875,0.0,0
1586284435.9789374,4,1,219.7265625,12.6953125,14.16015625,109.86328125,0.0,0
1586284435.9828436,4,1,178.7109375,8.7890625,-1.953125,59.5703125,0.0,0
1586284435.98675,4,1,-105.46875,10.7421875,2.44140625,-65.4296875,0.0,0
1586284435.9906561,4,1,-250.9765625,23.4375,26.85546875,-105.46875,0.0,0
1586284435.9945624,4,1,-68.84765625,29.296875,20.99609375,-35.64453125,0.0,0
1586284435.9984686,4,1,221.6796875,20.5078125,3.41796875,76.171875,0.0,0
1586284436.002375,4,1,221.19140625,21.97265625,13.671875,93.26171875,0.0,0
1586284436.0062811,4,1,-76.171875,21.484375,23.92578125,-30.2734375,0.0,0
1586284436.0101874,4,1,-262.20703125,14.16015625,10.7421875,-125.0,0.0,0
1586284436.0140936,4,1,-116.2109375,9.765625,11.71875,-57.12890625,0.0,0
1586284436.018,4,1,172.8515625,6.34765625,20.99609375,82.51953125,0.0,0
1586284436.0219061,4,1,234.375,15.625,22.4609375,109.375,0.0,0
1586284436.0258124,4,1,-30.76171875,14.16015625,24.4140625,-6.8359375,0.0,0
1586284436.0297186,4,1,-273.4375,5.859375,15.13671875,-122.0703125,0.0,0
1586284436.033625,4,1,-153.80859375,9.765625,15.13671875,-62.98828125,0.0,0
1586284436.0375311,4,1,162.59765625,17.08984375,28.80859375,98.6328125,0.0,0
1586284436.0414374,4,1,239.74609375,9.765625,20.5078125,104.00390625,0.0,0
1586284436.0453436,4,1,2.44140625,11.23046875,23.92578125,-20.5078125,0.0,0
1586284436.04925,4,1,-249.0234375,18.5546875,33.203125,-114.74609375,0.0,0
1586284436.0531561,4,1,-187.98828125,11.71875,27.34375,-81.54296875,0.0,0
1586284436.0570624,4,1,119.62890625,9.765625,23.92578125,56.640625,0.0,0
1586284436.0609686,4,1,256.8359375,13.671875,19.04296875,123.53515625,0.0,0
1586284436.064875,4,1,62.98828125,14.16015625,20.01953125,19.53125,0.0,0
1586284436.0687811,4,1,-215.33203125,18.5546875,21.484375,-108.88671875,0.0,0
1586284436.0726874,4,1,-209.47265625,19.04296875,17.08984375,-95.703125,0.0,0
1586284436.0765936,4,1,87.40234375,14.6484375,16.6015625,31.25,0.0,0
1586284436.0805,4,1,282.71484375,26.3671875,29.78515625,140.625,0.0,0
1586284436.0844061,4,1,102.05078125,30.76171875,25.87890625,47.36328125,0.0,0
1586284436.0883124,4,1,-200.1953125,17.578125,11.71875,-129.39453125,0.0,0
1586284436.0922186,4,1,-215.8203125,13.18359375,16.6015625,-116.2109375,0.0,0
1586284436.096125,4,1,72.265625,15.625,29.296875,34.66796875,0.0,0
1586284436.1000311,4,1,270.99609375,11.71875,27.34375,119.140625,0.0,0
1586284436.1039374,4,1,129.39453125,14.6484375,18.06640625,43.9453125,0.0,0
1586284436.1078436,4,1,-169.921875,23.4375,17.578125,-90.33203125,0.0,0
1586284436.11175,4,1,-243.65234375,21.484375,17.578125,-109.86328125,0.0,0
1586284436.1156561,4,1,25.390625,17.578125,15.625,19.04296875,0.0,0
