timestamps,words,terms,TP9,AF7,AF8,TP10,Right AUX,Marker
1586278968.383679,178,1,-32.2265625,-30.2734375,-49.31640625,-27.83203125,0.0,0
1586278968.3875852,178,1,-44.43359375,-9.27734375,-35.64453125,-41.015625,0.0,0
1586278968.3914914,178,1,-36.1328125,-17.08984375,-43.45703125,-24.90234375,0.0,0
1586278968.3953977,178,1,-33.203125,-24.90234375,-46.38671875,-15.625,0.0,0
1586278968.399304,178,1,-30.2734375,-31.25,-28.3203125,-8.7890625,0.0,0
1586278968.4032102,178,1,-23.4375,-41.9921875,-7.32421875,-17.578125,0.0,0
1586278968.4071164,178,1,-28.80859375,-39.0625,-18.5546875,-42.48046875,0.0,0
1586278968.4110227,178,1,-23.92578125,-33.69140625,-41.9921875,-34.66796875,0.0,0
1586278968.414929,178,1,-22.4609375,-27.83203125,-43.45703125,-16.11328125,0.0,0
1586278968.4188352,178,1,-25.87890625,-23.4375,-62.01171875,-17.08984375,0.0,0
1586278968.4227414,178,1,-24.4140625,-39.0625,-49.8046875,-26.3671875,0.0,0
1586278968.4266477,178,1,-26.85546875,-30.76171875,-17.578125,-26.85546875,0.0,0
1586278968.430554,178,1,-21.484375,-22.4609375,-28.3203125,-20.01953125,0.0,0
1586278968.4344602,178,1,-19.53125,-53.22265625,-39.0625,-15.13671875,0.0,0
1586278968.4383664,178,1,-25.87890625,-57.12890625,-32.2265625,-16.6015625,0.0,0
1586278968.4422727,178,1,-34.1796875,-23.4375,-37.59765625,-20.99609375,0.0,0
1586278968.446179,178,1,-29.296875,-14.16015625,-55.17578125,-26.3671875,0.0,0
1586278968.4500852,178,1,-20.99609375,-20.99609375,-44.43359375,-29.296875,0.0,0
1586278968.4539914,178,1,-19.04296875,-25.390625,-35.64453125,-19.53125,0.0,0
1586278968.4578977,178,1,-22.4609375,-25.390625,-37.59765625,-9.27734375,0.0,0
1586278968.461804,178,1,-26.3671875,-29.78515625,-34.1796875,-15.13671875,0.0,0
1586278968.4657102,178,1,-24.90234375,-33.69140625,-12.6953125,-23.4375,0.0,0
1586278968.4696164,178,1,-21.484375,-13.18359375,-7.8125,-20.5078125,0.0,0
1586278968.4735227,178,1,-18.06640625,-8.7890625,-25.87890625,-18.5546875,0.0,0
1586278968.477429,178,1,-17.578125,-33.203125,-36.62109375,-18.06640625,0.0,0
1586278968.4813352,178,1,-20.99609375,-37.59765625,-29.78515625,-16.6015625,0.0,0
1586278968.4852414,178,1,-27.34375,-51.7578125,-15.625,-24.4140625,0.0,0
1586278968.4891477,178,1,-27.34375,-62.01171875,-33.203125,-31.73828125,0.0,0
1586278968.493054,178,1,-21.97265625,-36.62109375,-74.70703125,-22.94921875,0.0,0
1586278968.4969602,178,1,-12.6953125,-30.2734375,-54.6875,-2.44140625,0.0,0
1586278968.5008664,178,1,-8.7890625,-30.76171875,-27.34375,5.37109375,0.0,0
1586278968.5047727,178,1,-17.08984375,-11.23046875,-29.78515625,0.48828125,0.0,0
1586278968.508679,178,1,-21.97265625,2.44140625,-15.625,-16.6015625,0.0,0
1586278968.5125852,178,1,-21.484375,-24.90234375,-25.87890625,-13.671875,0.0,0
1586278968.5164914,178,1,-23.4375,-47.8515625,-30.76171875,-0.9765625,0.0,0
1586278968.5203977,178,1,-24.90234375,-25.390625,-34.66796875,-2.44140625,0.0,0
1586278968.524304,178,1,-27.83203125,-13.18359375,-52.734375,-13.18359375,0.0,0
1586278968.5282102,178,1,-27.34375,-28.80859375,-51.26953125,-29.296875,0.0,0
1586278968.5321164,178,1,-27.34375,-35.15625,-42.96875,-26.85546875,0.0,0
1586278968.5360227,178,1,-23.92578125,-16.11328125,-24.4140625,-8.30078125,0.0,0
1586278968.539929,178,1,-29.78515625,-23.92578125,-13.18359375,-0.48828125,0.0,0
1586278968.5438352,178,1,-36.1328125,-20.99609375,-3.41796875,-13.18359375,0.0,0
1586278968.5477414,178,1,-35.15625,-20.5078125,-21.484375,-32.71484375,0.0,0
1586278968.5516477,178,1,-31.25,-44.43359375,-60.546875,-20.99609375,0.0,0
1586278968.555554,178,1,-28.80859375,-42.48046875,-52.24609375,0.9765625,0.0,0
1586278968.5594602,178,1,-35.64453125,-31.73828125,-15.625,-13.671875,0.0,0
1586278968.5633664,178,1,-40.52734375,-17.08984375,-25.390625,-37.109375,0.0,0
1586278968.5672727,178,1,-33.69140625,0.0,-31.25,-41.50390625,0.0,0
1586278968.571179,178,1,-26.85546875,-13.18359375,-10.25390625,-40.52734375,0.0,0
1586278968.5750852,178,1,-21.484375,-28.3203125,-29.78515625,-32.71484375,0.0,0
1586278968.5789914,178,1,-19.04296875,-6.8359375,-29.296875,-24.90234375,0.0,0
1586278968.5828977,178,1,-26.3671875,-2.9296875,-24.4140625,-23.4375,0.0,0
1586278968.586804,178,1,-28.3203125,-20.5078125,-42.48046875,-28.80859375,0.0,0
1586278968.5907102,178,1,-20.01953125,-30.76171875,-47.36328125,-26.3671875,0.0,0
1586278968.5946164,178,1,-24.4140625,-37.59765625,-34.66796875,-16.6015625,0.0,0
1586278968.5985227,178,1,-28.80859375,-43.45703125,-20.5078125,-14.16015625,0.0,0
1586278968.602429,178,1,-17.08984375,-28.80859375,-13.18359375,-4.39453125,0.0,0
1586278968.6063352,178,1,-19.53125,-17.578125,-16.6015625,-10.7421875,0.0,0
1586278968.6102414,178,1,-31.73828125,-32.71484375,-33.69140625,-22.4609375,0.0,0
1586278968.6141477,178,1,-24.4140625,-46.38671875,-40.52734375,-10.25390625,0.0,0
1586278968.618054,178,1,-15.13671875,-39.55078125,-37.59765625,-3.41796875,0.0,0
1586278968.6219602,178,1,-19.04296875,-29.78515625,-41.50390625,-7.8125,0.0,0
1586278968.6258664,178,1,-21.484375,-32.2265625,-25.87890625,-8.30078125,0.0,0
1586278968.6297727,178,1,-20.5078125,-24.4140625,-21.484375,-13.18359375,0.0,0
1586278968.633679,178,1,-16.6015625,-41.015625,-54.19921875,-19.53125,0.0,0
1586278968.6375852,178,1,-11.71875,-44.921875,-42.96875,-9.765625,0.0,0
1586278968.6414914,178,1,-20.5078125,-16.6015625,-22.4609375,-10.25390625,0.0,0
1586278968.6453977,178,1,-34.1796875,-51.26953125,-31.25,-26.3671875,0.0,0
1586278968.649304,178,1,-26.3671875,-52.24609375,-21.97265625,-16.6015625,0.0,0
1586278968.6532102,178,1,-17.08984375,-8.7890625,-18.06640625,-9.27734375,0.0,0
1586278968.6571164,178,1,-21.484375,-11.23046875,-36.62109375,0.9765625,0.0,0
1586278968.6610227,178,1,-21.97265625,-23.4375,-32.71484375,7.8125,0.0,0
1586278968.664929,178,1,-21.97265625,-32.71484375,-29.78515625,-9.765625,0.0,0
1586278968.6688352,178,1,-20.99609375,-43.9453125,-18.5546875,-18.5546875,0.0,0
1586278968.6727414,178,1,-27.34375,-36.1328125,-3.90625,-19.04296875,0.0,0
1586278968.6766477,178,1,-28.80859375,-24.4140625,-48.828125,-23.4375,0.0,0
1586278968.680554,178,1,-24.90234375,-31.25,-50.78125,-24.90234375,0.0,0
1586278968.6844602,178,1,-25.390625,-12.6953125,-23.4375,-28.80859375,0.0,0
1586278968.6883664,178,1,-22.4609375,-1.46484375,-26.85546875,-38.0859375,0.0,0
1586278968.6922727,178,1,-14.16015625,-32.2265625,-37.59765625,-28.80859375,0.0,0
1586278968.696179,178,1,-18.5546875,-32.71484375,-21.97265625,-19.53125,0.0,0
1586278968.7000852,178,1,-23.4375,-12.6953125,12.20703125,-30.76171875,0.0,0
1586278968.7039914,178,1,-30.76171875,-19.53125,-21.97265625,-37.109375,0.0,0
1586278968.7078977,178,1,-45.41015625,-41.50390625,-53.22265625,-46.38671875,0.0,0
1586278968.711804,178,1,-40.0390625,-37.59765625,-44.43359375,-41.50390625,0.0,0
1586278968.7157102,178,1,-24.4140625,-30.76171875,-35.15625,-22.4609375,0.0,0
1586278968.7196164,178,1,-17.08984375,-25.390625,-31.25,-14.6484375,0.0,0
1586278968.7235227,178,1,-20.5078125,-39.0625,-29.296875,-17.578125,0.0,0
1586278968.727429,178,1,-23.4375,-48.33984375,-32.71484375,-28.3203125,0.0,0
1586278968.7313352,178,1,-15.13671875,-22.94921875,-20.99609375,-17.08984375,0.0,0
1586278968.7352414,178,1,-16.11328125,-22.94921875,-8.30078125,0.0,0.0,0
1586278968.7391477,178,1,-22.94921875,-30.2734375,-26.3671875,-2.9296875,0.0,0
1586278968.743054,178,1,-34.66796875,-31.25,-62.01171875,-14.6484375,0.0,0
1586278968.7469602,178,1,-46.875,-34.66796875,-62.01171875,-25.390625,0.0,0
1586278968.7508664,178,1,-43.45703125,-32.2265625,-51.7578125,-26.85546875,0.0,0
1586278968.7547727,178,1,-35.64453125,-18.06640625,-26.3671875,-19.53125,0.0,0
1586278968.758679,178,1,-28.3203125,-20.99609375,-22.4609375,-9.765625,0.0,0
1586278968.7625852,178,1,-31.25,-27.83203125,-34.1796875,-21.484375,0.0,0
1586278968.7664914,178,1,-41.9921875,-42.48046875,-15.625,-51.26953125,0.0,0
1586278968.7703977,178,1,-39.55078125,-44.921875,-32.71484375,-50.29296875,0.0,0
1586278968.774304,178,1,-31.25,-30.76171875,-56.640625,-33.203125,0.0,0
1586278968.7782102,178,1,-26.85546875,-36.62109375,-54.19921875,-26.85546875,0.0,0
1586278968.7821164,178,1,-28.3203125,-47.36328125,-62.01171875,-25.87890625,0.0,0
1586278968.7860227,178,1,-23.4375,-23.4375,-42.48046875,-26.85546875,0.0,0
1586278968.789929,178,1,-8.7890625,7.32421875,-14.6484375,-23.92578125,0.0,0
1586278968.7938352,178,1,3.90625,3.41796875,-9.27734375,-0.9765625,0.0,0
1586278968.7977414,178,1,-2.9296875,-11.23046875,-19.53125,9.765625,0.0,0
1586278968.8016477,178,1,-11.23046875,-21.484375,-34.1796875,-3.41796875,0.0,0
1586278968.805554,178,1,-27.83203125,-28.3203125,-45.8984375,-24.4140625,0.0,0
1586278968.8094602,178,1,-32.2265625,-59.5703125,-55.6640625,-28.3203125,0.0,0
1586278968.8133664,178,1,-25.390625,-54.6875,-44.921875,-20.99609375,0.0,0
1586278968.8172727,178,1,-20.99609375,-14.16015625,-49.31640625,-12.6953125,0.0,0
1586278968.821179,178,1,-18.5546875,-5.37109375,-38.57421875,-5.37109375,0.0,0
1586278968.8250852,178,1,-17.578125,-5.859375,-18.06640625,-13.671875,0.0,0
1586278968.8289914,178,1,-14.16015625,-7.8125,-22.4609375,-13.18359375,0.0,0
1586278968.8328977,178,1,-13.671875,-39.0625,-25.390625,-0.48828125,0.0,0
1586278968.836804,178,1,-6.8359375,-30.76171875,-15.13671875,7.8125,0.0,0
1586278968.8407102,178,1,-14.6484375,-22.4609375,-15.625,-3.41796875,0.0,0
1586278968.8446164,178,1,-24.4140625,-60.546875,-53.7109375,-20.5078125,0.0,0
1586278968.8485227,178,1,-18.5546875,-52.24609375,-70.80078125,-25.87890625,0.0,0
1586278968.852429,178,1,-7.8125,-9.765625,-41.9921875,-13.18359375,0.0,0
1586278968.8563352,178,1,-8.30078125,-21.97265625,-19.04296875,1.46484375,0.0,0
1586278968.8602414,178,1,-21.484375,-36.1328125,-28.3203125,-10.7421875,0.0,0
1586278968.8641477,178,1,-26.85546875,-9.765625,-27.83203125,-23.92578125,0.0,0
1586278968.868054,178,1,-25.390625,-20.99609375,-20.99609375,-35.64453125,0.0,0
1586278968.8719602,178,1,-31.73828125,-46.875,-28.80859375,-33.203125,0.0,0
1586278968.8758664,178,1,-31.25,-23.92578125,-39.55078125,-23.92578125,0.0,0
1586278968.8797727,178,1,-27.83203125,-9.765625,-42.96875,-23.4375,0.0,0
1586278968.883679,178,1,-41.50390625,-25.87890625,-45.8984375,-36.62109375,0.0,0
1586278968.8875852,178,1,-44.921875,-39.55078125,-59.5703125,-51.26953125,0.0,0
1586278968.8914914,178,1,-41.9921875,-39.0625,-36.1328125,-44.921875,0.0,0
1586278968.8953977,178,1,-31.73828125,-27.83203125,-13.671875,-23.4375,0.0,0
1586278968.899304,178,1,-20.01953125,-32.71484375,-3.41796875,-5.859375,0.0,0
1586278968.9032102,178,1,-21.97265625,-47.8515625,-21.97265625,-15.13671875,0.0,0
1586278968.9071164,178,1,-30.2734375,-59.08203125,-55.17578125,-24.4140625,0.0,0
1586278968.9110227,178,1,-26.85546875,-60.546875,-24.4140625,-13.671875,0.0,0
1586278968.914929,178,1,-18.5546875,-44.43359375,-16.11328125,-0.48828125,0.0,0
1586278968.9188352,178,1,-24.4140625,-27.83203125,-43.9453125,-7.32421875,0.0,0
1586278968.9227414,178,1,-28.3203125,-18.5546875,-47.8515625,-18.5546875,0.0,0
1586278968.9266477,178,1,-28.80859375,-20.5078125,-31.25,-34.66796875,0.0,0
1586278968.930554,178,1,-23.4375,-31.25,-18.5546875,-31.25,0.0,0
1586278968.9344602,178,1,-20.5078125,-45.41015625,-28.80859375,-8.7890625,0.0,0
1586278968.9383664,178,1,-34.1796875,-38.57421875,-45.41015625,-10.25390625,0.0,0
1586278968.9422727,178,1,-43.45703125,-26.85546875,-52.734375,-19.53125,0.0,0
1586278968.946179,178,1,-54.6875,-24.4140625,-47.36328125,-41.9921875,0.0,0
1586278968.9500852,178,1,-49.31640625,-21.484375,-37.109375,-41.50390625,0.0,0
1586278968.9539914,178,1,-36.1328125,-41.015625,-17.08984375,-24.4140625,0.0,0
1586278968.9578977,178,1,-34.66796875,-47.8515625,-36.1328125,-20.99609375,0.0,0
1586278968.961804,178,1,-27.34375,-21.97265625,-50.29296875,-6.34765625,0.0,0
1586278968.9657102,178,1,-21.484375,-14.16015625,-54.6875,-9.765625,0.0,0
1586278968.9696164,178,1,-29.78515625,-35.15625,-58.10546875,-27.83203125,0.0,0
1586278968.9735227,178,1,-31.25,-36.62109375,-17.08984375,-22.4609375,0.0,0
1586278968.977429,178,1,-20.5078125,-32.2265625,-11.71875,-14.6484375,0.0,0
1586278968.9813352,178,1,-19.53125,-39.0625,-41.015625,-21.97265625,0.0,0
1586278968.9852414,178,1,-15.13671875,-23.4375,-31.73828125,-34.66796875,0.0,0
1586278968.9891477,178,1,-9.765625,0.9765625,-23.4375,-34.1796875,0.0,0
1586278968.993054,178,1,-9.765625,6.34765625,-56.640625,-28.80859375,0.0,0
1586278968.9969602,178,1,-9.765625,-17.08984375,-72.75390625,-14.6484375,0.0,0
1586278969.0008664,178,1,-18.5546875,-45.41015625,-64.94140625,-20.5078125,0.0,0
1586278969.0047727,178,1,-24.90234375,-29.296875,-62.98828125,-41.9921875,0.0,0
1586278969.008679,178,1,-21.97265625,-12.20703125,-40.52734375,-41.9921875,0.0,0
1586278969.0125852,178,1,-19.53125,-16.6015625,-33.203125,-25.390625,0.0,0
1586278969.0164914,178,1,-12.20703125,-15.13671875,-50.29296875,-6.34765625,0.0,0
1586278969.0203977,178,1,0.48828125,-18.5546875,-35.15625,3.41796875,0.0,0
1586278969.024304,178,1,-1.46484375,-22.94921875,-32.71484375,-0.9765625,0.0,0
1586278969.0282102,178,1,-14.6484375,-34.66796875,-66.40625,-18.5546875,0.0,0
1586278969.0321164,178,1,-18.06640625,-47.8515625,-51.26953125,-17.08984375,0.0,0
1586278969.0360227,178,1,-13.671875,-46.38671875,-16.11328125,-3.90625,0.0,0
1586278969.039929,178,1,-12.20703125,-31.25,-7.32421875,2.44140625,0.0,0
1586278969.0438352,178,1,-28.80859375,-12.6953125,-39.55078125,-15.13671875,0.0,0
1586278969.0477414,178,1,-38.0859375,-20.01953125,-45.41015625,-36.62109375,0.0,0
1586278969.0516477,178,1,-22.4609375,-20.5078125,-25.87890625,-26.3671875,0.0,0
1586278969.055554,178,1,-18.5546875,-33.69140625,-15.13671875,-2.44140625,0.0,0
1586278969.0594602,178,1,-23.4375,-56.640625,-34.1796875,-3.41796875,0.0,0
1586278969.0633664,178,1,-26.3671875,-57.12890625,-53.22265625,-22.94921875,0.0,0
1586278969.0672727,178,1,-29.78515625,-45.41015625,-54.19921875,-27.83203125,0.0,0
1586278969.071179,178,1,-22.4609375,-15.625,-43.9453125,-24.90234375,0.0,0
1586278969.0750852,178,1,-17.08984375,-13.671875,-5.859375,-24.4140625,0.0,0
1586278969.0789914,178,1,-19.04296875,-38.0859375,-1.953125,-13.18359375,0.0,0
1586278969.0828977,178,1,-21.484375,-41.015625,-20.99609375,-22.4609375,0.0,0
1586278969.086804,178,1,-22.94921875,-30.76171875,-11.71875,-40.0390625,0.0,0
1586278969.0907102,178,1,-19.53125,-21.97265625,-10.7421875,-35.15625,0.0,0
1586278969.0946164,178,1,-21.484375,-34.1796875,-55.6640625,-23.4375,0.0,0
1586278969.0985227,178,1,-19.53125,-40.0390625,-62.5,-14.16015625,0.0,0
1586278969.102429,178,1,-24.90234375,-27.34375,-34.66796875,-28.3203125,0.0,0
1586278969.1063352,178,1,-37.109375,-17.08984375,-21.484375,-42.48046875,0.0,0
1586278969.1102414,178,1,-31.25,-30.76171875,-41.9921875,-36.62109375,0.0,0
1586278969.1141477,178,1,-23.92578125,-45.41015625,-56.640625,-20.5078125,0.0,0
1586278969.118054,178,1,-20.01953125,-37.109375,-28.3203125,-9.27734375,0.0,0
1586278969.1219602,178,1,-20.5078125,-33.69140625,6.8359375,-15.13671875,0.0,0
1586278969.1258664,178,1,-33.203125,-26.85546875,-24.90234375,-27.83203125,0.0,0
1586278969.1297727,178,1,-34.1796875,-50.29296875,-37.59765625,-30.76171875,0.0,0
1586278969.133679,178,1,-25.87890625,-55.17578125,-46.38671875,-15.13671875,0.0,0
1586278969.1375852,178,1,-24.90234375,-15.625,-51.7578125,-3.41796875,0.0,0
1586278969.1414914,178,1,-20.5078125,5.37109375,-10.7421875,-14.6484375,0.0,0
1586278969.1453977,178,1,-22.94921875,7.32421875,-26.85546875,-22.4609375,0.0,0
1586278969.149304,178,1,-29.296875,-18.06640625,-34.1796875,-24.4140625,0.0,0
1586278969.1532102,178,1,-30.2734375,-42.96875,-19.04296875,-18.06640625,0.0,0
1586278969.1571164,178,1,-31.25,-55.17578125,-34.1796875,-9.27734375,0.0,0
1586278969.1610227,178,1,-48.33984375,-58.59375,-36.62109375,-20.5078125,0.0,0
1586278969.164929,178,1,-51.7578125,-42.48046875,-39.0625,-34.1796875,0.0,0
1586278969.1688352,178,1,-44.921875,-47.8515625,-63.96484375,-41.9921875,0.0,0
1586278969.1727414,178,1,-40.0390625,-52.24609375,-33.203125,-35.15625,0.0,0
1586278969.1766477,178,1,-30.76171875,-29.296875,-15.625,-11.23046875,0.0,0
1586278969.180554,178,1,-26.3671875,-23.92578125,-34.1796875,-13.671875,0.0,0
1586278969.1844602,178,1,-26.3671875,-22.94921875,-26.3671875,-29.78515625,0.0,0
1586278969.1883664,178,1,-34.66796875,-28.80859375,-38.57421875,-34.66796875,0.0,0
1586278969.1922727,178,1,-34.66796875,-37.109375,-40.52734375,-23.92578125,0.0,0
1586278969.196179,178,1,-26.85546875,-51.26953125,-32.71484375,-6.34765625,0.0,0
1586278969.2000852,178,1,-34.1796875,-50.29296875,-43.9453125,-14.16015625,0.0,0
1586278969.2039914,178,1,-36.62109375,-27.34375,-60.05859375,-14.16015625,0.0,0
1586278969.2078977,178,1,-30.76171875,-12.20703125,-42.48046875,-18.06640625,0.0,0
1586278969.211804,178,1,-23.92578125,-23.4375,-26.85546875,-16.6015625,0.0,0
1586278969.2157102,178,1,-20.01953125,-54.19921875,-16.6015625,-4.8828125,0.0,0
1586278969.2196164,178,1,-20.01953125,-35.64453125,1.953125,-17.08984375,0.0,0
1586278969.2235227,178,1,-20.01953125,-22.4609375,-25.390625,-22.4609375,0.0,0
1586278969.227429,178,1,-17.08984375,-43.45703125,-66.89453125,-22.4609375,0.0,0
1586278969.2313352,178,1,-16.11328125,-51.26953125,-70.80078125,-32.2265625,0.0,0
1586278969.2352414,178,1,-16.11328125,-42.48046875,-39.0625,-23.92578125,0.0,0
1586278969.2391477,178,1,-8.7890625,-19.04296875,-30.76171875,-4.8828125,0.0,0
1586278969.243054,178,1,-13.18359375,-9.765625,-46.38671875,-19.04296875,0.0,0
1586278969.2469602,178,1,-15.625,-25.87890625,-30.76171875,-34.1796875,0.0,0
1586278969.2508664,178,1,-9.27734375,-29.296875,-17.578125,-17.08984375,0.0,0
1586278969.2547727,178,1,-5.859375,-21.484375,-41.015625,-5.37109375,0.0,0
1586278969.258679,178,1,-10.7421875,-31.25,-82.03125,-10.7421875,0.0,0
1586278969.2625852,178,1,-20.5078125,-20.01953125,-43.9453125,-22.4609375,0.0,0
1586278969.2664914,178,1,-30.2734375,-14.6484375,-8.7890625,-39.55078125,0.0,0
1586278969.2703977,178,1,-38.0859375,-23.92578125,-29.296875,-41.50390625,0.0,0
1586278969.274304,178,1,-34.66796875,-9.765625,-39.55078125,-19.53125,0.0,0
1586278969.2782102,178,1,-29.78515625,-34.1796875,-17.578125,-4.39453125,0.0,0
1586278969.2821164,178,1,-25.390625,-37.59765625,1.46484375,-9.765625,0.0,0
1586278969.2860227,178,1,-27.34375,-22.94921875,-6.8359375,-20.5078125,0.0,0
1586278969.289929,178,1,-26.3671875,-35.64453125,-37.109375,-21.484375,0.0,0
1586278969.2938352,178,1,-20.01953125,-49.31640625,-62.5,-4.8828125,0.0,0
1586278969.2977414,178,1,-23.92578125,-73.73046875,-45.41015625,0.0,0.0,0
1586278969.3016477,178,1,-27.34375,-52.24609375,-57.12890625,-22.4609375,0.0,0
1586278969.305554,178,1,-38.57421875,-23.92578125,-59.08203125,-45.8984375,0.0,0
1586278969.3094602,178,1,-39.55078125,-17.578125,-39.55078125,-45.41015625,0.0,0
1586278969.3133664,178,1,-22.4609375,-14.6484375,-18.5546875,-27.34375,0.0,0
1586278969.3172727,178,1,-19.04296875,-25.390625,-3.41796875,-14.6484375,0.0,0
1586278969.321179,178,1,-34.1796875,-31.73828125,-30.76171875,-28.3203125,0.0,0
1586278969.3250852,178,1,-31.25,-25.87890625,-45.41015625,-38.0859375,0.0,0
1586278969.3289914,178,1,-24.90234375,-29.296875,-55.17578125,-40.52734375,0.0,0
1586278969.3328977,178,1,-33.203125,-32.2265625,-79.1015625,-42.48046875,0.0,0
1586278969.336804,178,1,-41.50390625,-36.62109375,-77.63671875,-34.1796875,0.0,0
1586278969.3407102,178,1,-32.2265625,-56.15234375,-62.01171875,-22.94921875,0.0,0
1586278969.3446164,178,1,-26.85546875,-60.05859375,-51.26953125,-26.3671875,0.0,0
1586278969.3485227,178,1,-37.59765625,-37.109375,-29.296875,-33.203125,0.0,0
1586278969.352429,178,1,-36.1328125,-30.76171875,-19.04296875,-21.484375,0.0,0
1586278969.3563352,178,1,-28.80859375,-41.50390625,-14.16015625,-5.859375,0.0,0
1586278969.3602414,178,1,-26.3671875,-48.33984375,-1.46484375,-4.39453125,0.0,0
1586278969.3641477,178,1,-27.83203125,-44.43359375,-21.484375,-18.06640625,0.0,0
1586278969.368054,178,1,-29.296875,-35.15625,-50.78125,-27.34375,0.0,0
1586278969.3719602,178,1,-30.76171875,-57.12890625,-59.08203125,-13.18359375,0.0,0
1586278969.3758664,178,1,-33.203125,-56.15234375,-73.2421875,-9.27734375,0.0,0
1586278969.3797727,178,1,-22.94921875,-30.2734375,-57.6171875,-17.578125,0.0,0
1586278969.383679,178,1,-28.3203125,-30.76171875,-31.73828125,-26.85546875,0.0,0
1586278969.3875852,178,1,-45.41015625,-36.1328125,-50.29296875,-32.2265625,0.0,0
1586278969.3914914,178,1,-42.96875,-47.8515625,-29.296875,-20.01953125,0.0,0
1586278969.3953977,178,1,-37.59765625,-55.6640625,-4.39453125,-0.48828125,0.0,0
1586278969.399304,178,1,-34.66796875,-35.15625,-2.9296875,1.953125,0.0,0
1586278969.4032102,178,1,-32.2265625,-23.4375,14.16015625,-10.25390625,0.0,0
1586278969.4071164,178,1,-39.0625,-45.8984375,-19.53125,-21.484375,0.0,0
1586278969.4110227,178,1,-46.875,-54.19921875,-44.921875,-23.4375,0.0,0
1586278969.414929,178,1,-36.62109375,-42.96875,-55.6640625,-2.44140625,0.0,0
1586278969.4188352,178,1,-30.2734375,-49.31640625,-49.31640625,-1.953125,0.0,0
1586278969.4227414,178,1,-30.2734375,-38.0859375,-20.99609375,-13.18359375,0.0,0
1586278969.4266477,178,1,-22.4609375,-24.90234375,-31.73828125,-12.20703125,0.0,0
1586278969.430554,178,1,-13.18359375,-31.73828125,-26.85546875,-6.8359375,0.0,0
1586278969.4344602,178,1,-7.32421875,-22.94921875,-19.53125,0.48828125,0.0,0
1586278969.4383664,178,1,-4.8828125,-19.53125,-32.2265625,6.34765625,0.0,0
1586278969.4422727,178,1,-8.7890625,-34.1796875,-45.8984375,-2.9296875,0.0,0
1586278969.446179,178,1,-16.6015625,-25.87890625,-31.25,-24.4140625,0.0,0
1586278969.4500852,178,1,-15.13671875,-26.3671875,-10.25390625,-24.4140625,0.0,0
1586278969.4539914,178,1,-12.6953125,-46.875,-38.57421875,-12.20703125,0.0,0
1586278969.4578977,178,1,-11.71875,-53.7109375,-54.6875,-10.25390625,0.0,0
1586278969.461804,178,1,-13.18359375,-38.57421875,-45.41015625,-20.5078125,0.0,0
1586278969.4657102,178,1,-23.92578125,-45.8984375,-24.4140625,-31.25,0.0,0
1586278969.4696164,178,1,-17.08984375,-58.59375,-30.2734375,-18.06640625,0.0,0
1586278969.4735227,178,1,-7.8125,-46.875,-29.296875,1.46484375,0.0,0
1586278969.477429,178,1,-16.6015625,-26.3671875,-8.30078125,6.8359375,0.0,0
1586278969.4813352,178,1,-11.23046875,-0.9765625,-22.4609375,0.48828125,0.0,0
1586278969.4852414,178,1,-12.20703125,-11.23046875,-47.36328125,-20.99609375,0.0,0
1586278969.4891477,178,1,-24.90234375,-36.62109375,-30.76171875,-24.4140625,0.0,0
1586278969.493054,178,1,-23.92578125,-45.41015625,-16.6015625,-6.34765625,0.0,0
1586278969.4969602,178,1,-23.92578125,-39.0625,-19.04296875,-3.90625,0.0,0
1586278969.5008664,178,1,-28.3203125,-27.34375,-29.78515625,-9.27734375,0.0,0
1586278969.5047727,178,1,-29.296875,-24.90234375,-41.015625,-18.06640625,0.0,0
1586278969.508679,178,1,-32.2265625,-35.15625,-22.4609375,-26.85546875,0.0,0
1586278969.5125852,178,1,-26.3671875,-45.41015625,-16.6015625,-15.625,0.0,0
1586278969.5164914,178,1,-22.94921875,-22.4609375,-20.5078125,-8.7890625,0.0,0
1586278969.5203977,178,1,-21.484375,-0.9765625,-19.53125,-13.18359375,0.0,0
1586278969.524304,178,1,-22.4609375,-24.90234375,-39.55078125,-21.97265625,0.0,0
1586278969.5282102,178,1,-31.25,-36.1328125,-38.0859375,-36.62109375,0.0,0
1586278969.5321164,178,1,-34.1796875,-30.76171875,-47.8515625,-29.78515625,0.0,0
1586278969.5360227,178,1,-26.3671875,-38.0859375,-68.359375,-12.6953125,0.0,0
1586278969.539929,178,1,-25.390625,-43.45703125,-45.41015625,-22.94921875,0.0,0
1586278969.5438352,178,1,-24.90234375,-35.15625,-15.625,-31.25,0.0,0
1586278969.5477414,178,1,-22.4609375,-11.23046875,-10.7421875,-25.87890625,0.0,0
1586278969.5516477,178,1,-24.4140625,-13.671875,-30.76171875,-25.390625,0.0,0
1586278969.555554,178,1,-29.296875,-47.36328125,-21.484375,-26.85546875,0.0,0
1586278969.5594602,178,1,-27.34375,-43.9453125,-13.671875,-27.83203125,0.0,0
1586278969.5633664,178,1,-21.97265625,-10.7421875,-19.53125,-35.15625,0.0,0
1586278969.5672727,178,1,-18.5546875,-10.7421875,-15.625,-34.66796875,0.0,0
1586278969.571179,178,1,-25.390625,-44.43359375,-41.9921875,-26.3671875,0.0,0
1586278969.5750852,178,1,-19.53125,-37.109375,-63.4765625,-9.765625,0.0,0
1586278969.5789914,178,1,-17.08984375,-21.484375,-50.78125,-8.7890625,0.0,0
1586278969.5828977,178,1,-25.390625,-35.15625,-52.734375,-21.97265625,0.0,0
1586278969.586804,178,1,-29.78515625,-38.0859375,-52.734375,-28.3203125,0.0,0
1586278969.5907102,178,1,-37.59765625,-36.62109375,-31.73828125,-24.4140625,0.0,0
1586278969.5946164,178,1,-40.0390625,-38.0859375,-30.2734375,-13.671875,0.0,0
1586278969.5985227,178,1,-33.203125,-40.52734375,-19.04296875,-7.8125,0.0,0
1586278969.602429,178,1,-32.2265625,-34.66796875,-2.44140625,-11.23046875,0.0,0
1586278969.6063352,178,1,-40.0390625,-36.62109375,-47.8515625,-19.04296875,0.0,0
1586278969.6102414,178,1,-39.55078125,-49.31640625,-52.734375,-11.23046875,0.0,0
1586278969.6141477,178,1,-24.4140625,-28.3203125,-3.41796875,6.34765625,0.0,0
1586278969.618054,178,1,-19.53125,-19.53125,-7.8125,1.953125,0.0,0
1586278969.6219602,178,1,-25.390625,-36.62109375,-31.73828125,-14.16015625,0.0,0
1586278969.6258664,178,1,-27.83203125,-22.4609375,-65.91796875,-30.2734375,0.0,0
1586278969.6297727,178,1,-21.484375,-22.4609375,-61.03515625,-39.0625,0.0,0
1586278969.633679,178,1,-16.11328125,-43.9453125,-28.3203125,-28.3203125,0.0,0
1586278969.6375852,178,1,-13.18359375,-44.921875,-23.4375,-12.6953125,0.0,0
1586278969.6414914,178,1,-17.578125,-36.62109375,-23.92578125,-16.6015625,0.0,0
1586278969.6453977,178,1,-24.4140625,-31.73828125,-17.578125,-27.83203125,0.0,0
1586278969.649304,178,1,-14.6484375,-20.01953125,-10.25390625,-17.578125,0.0,0
1586278969.6532102,178,1,-7.32421875,-11.71875,-21.97265625,-3.41796875,0.0,0
1586278969.6571164,178,1,-13.18359375,-18.5546875,-49.8046875,1.953125,0.0,0
1586278969.6610227,178,1,-27.83203125,-20.01953125,-49.31640625,-8.7890625,0.0,0
1586278969.664929,178,1,-28.80859375,-25.87890625,-34.66796875,-24.90234375,0.0,0
1586278969.6688352,178,1,-22.4609375,-51.26953125,-48.828125,-26.3671875,0.0,0
1586278969.6727414,178,1,-22.4609375,-29.296875,-38.57421875,-16.6015625,0.0,0
1586278969.6766477,178,1,-21.97265625,-16.11328125,-34.66796875,-4.8828125,0.0,0
1586278969.680554,178,1,-25.87890625,-33.203125,-40.52734375,-17.08984375,0.0,0
1586278969.6844602,178,1,-29.296875,-9.765625,-20.01953125,-28.3203125,0.0,0
1586278969.6883664,178,1,-28.80859375,-3.41796875,-8.30078125,-29.78515625,0.0,0
1586278969.6922727,178,1,-23.92578125,-18.5546875,-33.69140625,-27.34375,0.0,0
1586278969.696179,178,1,-24.4140625,-29.78515625,-45.41015625,-11.71875,0.0,0
1586278969.7000852,178,1,-33.69140625,-27.34375,-49.8046875,-14.16015625,0.0,0
1586278969.7039914,178,1,-44.43359375,-41.50390625,-54.19921875,-27.83203125,0.0,0
1586278969.7078977,178,1,-44.921875,-43.9453125,-38.57421875,-30.2734375,0.0,0
1586278969.711804,178,1,-34.1796875,-21.97265625,-45.8984375,-24.90234375,0.0,0
1586278969.7157102,178,1,-33.203125,-16.11328125,-59.5703125,-18.06640625,0.0,0
1586278969.7196164,178,1,-32.2265625,-14.6484375,-50.78125,-5.859375,0.0,0
1586278969.7235227,178,1,-30.2734375,-18.5546875,-39.0625,-7.8125,0.0,0
1586278969.727429,178,1,-29.78515625,-44.43359375,-16.6015625,-16.6015625,0.0,0
1586278969.7313352,178,1,-23.92578125,-52.24609375,-11.23046875,-11.71875,0.0,0
1586278969.7352414,178,1,-16.11328125,-15.13671875,-20.99609375,0.9765625,0.0,0
1586278969.7391477,178,1,-19.53125,-3.41796875,-24.4140625,14.6484375,0.0,0
1586278969.743054,178,1,-30.76171875,-13.671875,-16.6015625,1.46484375,0.0,0
1586278969.7469602,178,1,-32.71484375,-18.06640625,-14.6484375,-24.4140625,0.0,0
1586278969.7508664,178,1,-26.85546875,-27.34375,-65.91796875,-28.80859375,0.0,0
1586278969.7547727,178,1,-14.16015625,-30.2734375,-81.54296875,-20.01953125,0.0,0
1586278969.758679,178,1,-15.625,-35.64453125,-17.578125,-19.04296875,0.0,0
1586278969.7625852,178,1,-28.80859375,-34.66796875,-12.20703125,-36.62109375,0.0,0
1586278969.7664914,178,1,-36.62109375,-17.578125,-40.0390625,-50.29296875,0.0,0
1586278969.7703977,178,1,-29.78515625,-16.6015625,-31.73828125,-38.57421875,0.0,0
1586278969.774304,178,1,-20.99609375,-37.109375,-44.921875,-19.04296875,0.0,0
1586278969.7782102,178,1,-19.53125,-20.99609375,-48.33984375,-19.53125,0.0,0
1586278969.7821164,178,1,-28.80859375,-15.13671875,-41.9921875,-36.1328125,0.0,0
1586278969.7860227,178,1,-34.66796875,-24.4140625,-30.76171875,-26.85546875,0.0,0
1586278969.789929,178,1,-30.76171875,-25.87890625,-31.25,-12.20703125,0.0,0
1586278969.7938352,178,1,-31.25,-46.875,-34.66796875,-14.16015625,0.0,0
1586278969.7977414,178,1,-27.34375,-49.31640625,-20.99609375,-6.8359375,0.0,0
1586278969.8016477,178,1,-34.66796875,-46.38671875,-39.0625,-16.6015625,0.0,0
1586278969.805554,178,1,-38.0859375,-41.50390625,-47.36328125,-28.80859375,0.0,0
1586278969.8094602,178,1,-29.296875,-23.4375,-30.2734375,-7.8125,0.0,0
1586278969.8133664,178,1,-27.34375,-20.01953125,-24.4140625,4.8828125,0.0,0
1586278969.8172727,178,1,-28.3203125,-38.0859375,-21.97265625,9.765625,0.0,0
1586278969.821179,178,1,-35.64453125,-57.12890625,-41.015625,3.41796875,0.0,0
1586278969.8250852,178,1,-36.1328125,-66.89453125,-62.5,-16.6015625,0.0,0
1586278969.8289914,178,1,-29.296875,-66.89453125,-47.36328125,-27.34375,0.0,0
1586278969.8328977,178,1,-25.390625,-49.31640625,-20.5078125,-16.11328125,0.0,0
1586278969.836804,178,1,-26.85546875,-19.53125,-21.97265625,-8.30078125,0.0,0
1586278969.8407102,178,1,-38.0859375,-13.671875,-41.9921875,-26.3671875,0.0,0
1586278969.8446164,178,1,-38.57421875,-29.78515625,-45.41015625,-41.50390625,0.0,0
1586278969.8485227,178,1,-38.0859375,-32.2265625,-54.6875,-43.9453125,0.0,0
1586278969.852429,178,1,-32.2265625,-22.94921875,-60.05859375,-33.203125,0.0,0
1586278969.8563352,178,1,-20.01953125,-29.78515625,-26.85546875,-9.27734375,0.0,0
1586278969.8602414,178,1,-21.97265625,-46.875,-26.85546875,-9.765625,0.0,0
1586278969.8641477,178,1,-20.99609375,-30.2734375,-29.78515625,-27.34375,0.0,0
1586278969.868054,178,1,-22.94921875,-12.20703125,-24.4140625,-33.203125,0.0,0
1586278969.8719602,178,1,-17.578125,-9.765625,-30.2734375,-18.06640625,0.0,0
1586278969.8758664,178,1,-2.44140625,-8.7890625,-20.99609375,-0.9765625,0.0,0
1586278969.8797727,178,1,5.859375,-5.859375,-23.92578125,3.41796875,0.0,0
1586278969.883679,178,1,-0.9765625,-3.90625,-27.34375,-12.20703125,0.0,0
1586278969.8875852,178,1,-8.30078125,-31.25,-59.08203125,-23.92578125,0.0,0
1586278969.8914914,178,1,0.0,-53.22265625,-59.5703125,-7.8125,0.0,0
1586278969.8953977,178,1,-0.9765625,-22.4609375,-19.04296875,2.9296875,0.0,0
1586278969.899304,178,1,-16.11328125,-25.390625,-18.06640625,-1.46484375,0.0,0
1586278969.9032102,178,1,-20.01953125,-33.203125,-10.7421875,-7.32421875,0.0,0
1586278969.9071164,178,1,-16.6015625,-20.99609375,-20.99609375,-9.27734375,0.0,0
1586278969.9110227,178,1,-22.94921875,-23.92578125,-44.43359375,-9.27734375,0.0,0
1586278969.914929,178,1,-26.85546875,-16.6015625,-54.19921875,-8.30078125,0.0,0
1586278969.9188352,178,1,-24.4140625,-33.69140625,-50.29296875,-5.859375,0.0,0
1586278969.9227414,178,1,-30.2734375,-41.50390625,-28.3203125,-16.11328125,0.0,0
1586278969.9266477,178,1,-30.76171875,-28.3203125,-36.62109375,-34.1796875,0.0,0
1586278969.930554,178,1,-28.80859375,-12.20703125,-43.45703125,-29.296875,0.0,0
1586278969.9344602,178,1,-24.4140625,-6.34765625,-28.3203125,-11.71875,0.0,0
1586278969.9383664,178,1,-25.87890625,-21.97265625,-24.90234375,-4.8828125,0.0,0
1586278969.9422727,178,1,-32.2265625,-38.57421875,-18.06640625,-7.8125,0.0,0
1586278969.946179,178,1,-26.85546875,-33.69140625,-22.4609375,-22.94921875,0.0,0
1586278969.9500852,178,1,-29.296875,-24.4140625,-34.66796875,-27.34375,0.0,0
1586278969.9539914,178,1,-32.2265625,-25.390625,-40.0390625,-12.6953125,0.0,0
1586278969.9578977,178,1,-22.94921875,-29.78515625,-52.734375,-14.16015625,0.0,0
1586278969.961804,178,1,-23.4375,-31.25,-50.29296875,-24.4140625,0.0,0
1586278969.9657102,178,1,-22.94921875,-28.80859375,-24.4140625,-34.1796875,0.0,0
1586278969.9696164,178,1,-15.625,-31.73828125,-39.0625,-37.59765625,0.0,0
1586278969.9735227,178,1,-22.4609375,-25.390625,-61.03515625,-21.97265625,0.0,0
1586278969.977429,178,1,-17.08984375,-16.11328125,-49.8046875,-4.39453125,0.0,0
1586278969.9813352,178,1,-11.71875,-11.23046875,-31.25,-7.8125,0.0,0
1586278969.9852414,178,1,-21.484375,-34.66796875,-12.20703125,-18.06640625,0.0,0
1586278969.9891477,178,1,-22.4609375,-31.73828125,-31.25,-18.5546875,0.0,0
1586278969.993054,178,1,-21.97265625,-14.6484375,-29.296875,-15.625,0.0,0
1586278969.9969602,178,1,-20.01953125,-31.73828125,-35.15625,-13.18359375,0.0,0
1586278970.0008664,178,1,-24.4140625,-28.80859375,-44.43359375,-27.83203125,0.0,0
1586278970.0047727,178,1,-36.1328125,-16.6015625,-37.59765625,-45.8984375,0.0,0
1586278970.008679,178,1,-37.109375,-20.5078125,-27.34375,-40.52734375,0.0,0
1586278970.0125852,178,1,-39.55078125,-37.59765625,-30.76171875,-28.80859375,0.0,0
1586278970.0164914,178,1,-27.83203125,-36.1328125,-41.9921875,-19.04296875,0.0,0
1586278970.0203977,178,1,-27.34375,-20.5078125,-30.2734375,-25.87890625,0.0,0
1586278970.024304,178,1,-36.1328125,-2.44140625,-29.78515625,-36.1328125,0.0,0
1586278970.0282102,178,1,-36.1328125,-14.6484375,-39.55078125,-30.2734375,0.0,0
1586278970.0321164,178,1,-42.48046875,-55.17578125,-34.1796875,-17.578125,0.0,0
1586278970.0360227,178,1,-31.25,-47.8515625,-33.203125,1.46484375,0.0,0
1586278970.039929,178,1,-27.83203125,-40.52734375,-36.1328125,4.39453125,0.0,0
1586278970.0438352,178,1,-27.34375,-34.1796875,-37.59765625,-11.23046875,0.0,0
1586278970.0477414,178,1,-18.06640625,-21.484375,-26.3671875,-15.13671875,0.0,0
1586278970.0516477,178,1,-17.08984375,-27.34375,-19.53125,-18.06640625,0.0,0
1586278970.055554,178,1,-26.85546875,-31.73828125,-30.2734375,-24.90234375,0.0,0
1586278970.0594602,178,1,-26.85546875,-18.06640625,-41.9921875,-17.08984375,0.0,0
1586278970.0633664,178,1,-21.97265625,-4.8828125,-38.57421875,-21.484375,0.0,0
1586278970.0672727,178,1,-26.85546875,-22.4609375,-26.85546875,-33.69140625,0.0,0
1586278970.071179,178,1,-23.4375,-30.76171875,-42.48046875,-29.296875,0.0,0
1586278970.0750852,178,1,-18.5546875,-14.6484375,-71.77734375,-19.04296875,0.0,0
1586278970.0789914,178,1,-14.6484375,-31.25,-32.71484375,-6.8359375,0.0,0
1586278970.0828977,178,1,-25.87890625,-48.33984375,-22.4609375,-22.4609375,0.0,0
1586278970.086804,178,1,-33.203125,-17.08984375,-34.66796875,-43.45703125,0.0,0
1586278970.0907102,178,1,-30.76171875,-8.7890625,1.46484375,-44.921875,0.0,0
1586278970.0946164,178,1,-29.296875,-24.90234375,-8.7890625,-31.25,0.0,0
1586278970.0985227,178,1,-27.34375,-26.85546875,-48.33984375,-23.92578125,0.0,0
1586278970.102429,178,1,-25.390625,-33.69140625,-66.89453125,-27.83203125,0.0,0
1586278970.1063352,178,1,-26.85546875,-41.015625,-54.19921875,-29.296875,0.0,0
1586278970.1102414,178,1,-31.25,-39.0625,-35.15625,-31.73828125,0.0,0
1586278970.1141477,178,1,-23.92578125,-22.94921875,-25.390625,-6.34765625,0.0,0
1586278970.118054,178,1,-15.13671875,-9.27734375,-36.1328125,14.16015625,0.0,0
1586278970.1219602,178,1,-21.484375,-19.04296875,-56.15234375,-4.8828125,0.0,0
1586278970.1258664,178,1,-36.1328125,-23.4375,-43.45703125,-21.484375,0.0,0
1586278970.1297727,178,1,-41.015625,-35.15625,-22.4609375,-27.34375,0.0,0
1586278970.133679,178,1,-35.15625,-49.8046875,-35.64453125,-20.5078125,0.0,0
1586278970.1375852,178,1,-33.203125,-24.90234375,-34.1796875,-4.39453125,0.0,0
1586278970.1414914,178,1,-44.43359375,-11.23046875,-42.48046875,-19.04296875,0.0,0
1586278970.1453977,178,1,-41.50390625,-18.5546875,-68.359375,-34.66796875,0.0,0
1586278970.149304,178,1,-23.92578125,-27.83203125,-41.50390625,-22.4609375,0.0,0
1586278970.1532102,178,1,-11.23046875,-15.13671875,-7.8125,0.9765625,0.0,0
1586278970.1571164,178,1,-18.5546875,-17.08984375,-24.90234375,-4.39453125,0.0,0
1586278970.1610227,178,1,-26.3671875,-34.66796875,-16.6015625,-20.01953125,0.0,0
1586278970.164929,178,1,-22.4609375,-5.37109375,0.0,-18.06640625,0.0,0
1586278970.1688352,178,1,-19.53125,-3.90625,-49.31640625,-21.97265625,0.0,0
1586278970.1727414,178,1,-19.04296875,-26.3671875,-60.05859375,-12.20703125,0.0,0
1586278970.1766477,178,1,-20.99609375,-31.25,-25.390625,1.46484375,0.0,0
1586278970.180554,178,1,-26.85546875,-33.203125,-28.80859375,-15.13671875,0.0,0
1586278970.1844602,178,1,-40.0390625,-38.0859375,-43.45703125,-33.69140625,0.0,0
1586278970.1883664,178,1,-37.109375,-38.0859375,-41.015625,-37.109375,0.0,0
1586278970.1922727,178,1,-24.4140625,-10.25390625,-44.43359375,-25.390625,0.0,0
1586278970.196179,178,1,-23.92578125,5.859375,-48.33984375,-9.765625,0.0,0
1586278970.2000852,178,1,-21.97265625,-6.8359375,-25.390625,-14.16015625,0.0,0
1586278970.2039914,178,1,-20.99609375,-20.5078125,-30.2734375,-21.97265625,0.0,0
1586278970.2078977,178,1,-18.06640625,-26.85546875,-14.6484375,-23.92578125,0.0,0
1586278970.211804,178,1,-13.671875,-27.34375,2.9296875,-20.01953125,0.0,0
1586278970.2157102,178,1,-15.13671875,-19.53125,-27.34375,-9.765625,0.0,0
1586278970.2196164,178,1,-26.3671875,-42.48046875,-61.5234375,-20.5078125,0.0,0
1586278970.2235227,178,1,-36.62109375,-60.546875,-60.546875,-36.1328125,0.0,0
1586278970.227429,178,1,-37.59765625,-17.578125,-30.2734375,-42.48046875,0.0,0
1586278970.2313352,178,1,-37.59765625,6.34765625,-41.9921875,-36.1328125,0.0,0
1586278970.2352414,178,1,-30.2734375,-20.99609375,-48.828125,-13.18359375,0.0,0
1586278970.2391477,178,1,-27.34375,-34.1796875,-53.22265625,-2.44140625,0.0,0
1586278970.243054,178,1,-35.15625,-17.578125,-53.22265625,-24.90234375,0.0,0
1586278970.2469602,178,1,-35.64453125,-8.30078125,-15.13671875,-36.62109375,0.0,0
1586278970.2508664,178,1,-23.92578125,-21.484375,0.9765625,-25.390625,0.0,0
1586278970.2547727,178,1,-21.484375,-33.69140625,-40.52734375,-21.484375,0.0,0
1586278970.258679,178,1,-30.2734375,-40.52734375,-64.453125,-17.578125,0.0,0
1586278970.2625852,178,1,-32.2265625,-34.1796875,-58.10546875,-21.484375,0.0,0
1586278970.2664914,178,1,-28.80859375,-24.90234375,-30.76171875,-28.3203125,0.0,0
1586278970.2703977,178,1,-31.25,-21.484375,-32.2265625,-16.6015625,0.0,0
1586278970.274304,178,1,-26.85546875,-10.25390625,-61.03515625,-6.34765625,0.0,0
1586278970.2782102,178,1,-22.94921875,-28.3203125,-48.33984375,-7.32421875,0.0,0
1586278970.2821164,178,1,-28.3203125,-43.9453125,-40.0390625,-14.16015625,0.0,0
1586278970.2860227,178,1,-30.2734375,-24.90234375,-46.38671875,-25.87890625,0.0,0
1586278970.289929,178,1,-21.97265625,-38.0859375,-41.50390625,-25.390625,0.0,0
1586278970.2938352,178,1,-12.20703125,-46.875,-29.296875,-8.30078125,0.0,0
1586278970.2977414,178,1,-16.11328125,-25.87890625,-28.80859375,-2.9296875,0.0,0
1586278970.3016477,178,1,-34.1796875,-26.85546875,-54.19921875,-34.1796875,0.0,0
1586278970.305554,178,1,-32.71484375,-36.62109375,-69.82421875,-49.8046875,0.0,0
1586278970.3094602,178,1,-18.06640625,-55.6640625,-53.7109375,-33.203125,0.0,0
1586278970.3133664,178,1,-17.578125,-56.15234375,-37.59765625,-17.578125,0.0,0
1586278970.3172727,178,1,-24.4140625,-39.0625,-38.0859375,-14.16015625,0.0,0
1586278970.321179,178,1,-23.4375,-15.13671875,-7.8125,-14.16015625,0.0,0
1586278970.3250852,178,1,-19.53125,-25.390625,-22.94921875,-16.6015625,0.0,0
1586278970.3289914,178,1,-12.20703125,-36.1328125,-44.921875,-12.20703125,0.0,0
1586278970.3328977,178,1,-3.90625,-7.8125,-20.5078125,11.23046875,0.0,0
1586278970.336804,178,1,-7.8125,-6.8359375,-36.62109375,15.625,0.0,0
1586278970.3407102,178,1,-17.08984375,-29.78515625,-53.7109375,-12.6953125,0.0,0
1586278970.3446164,178,1,-28.3203125,-19.53125,-35.15625,-34.1796875,0.0,0
1586278970.3485227,178,1,-34.1796875,-20.01953125,-33.203125,-33.203125,0.0,0
1586278970.352429,178,1,-24.90234375,-48.828125,-28.80859375,-15.13671875,0.0,0
1586278970.3563352,178,1,-20.5078125,-56.15234375,-32.2265625,-4.8828125,0.0,0
1586278970.3602414,178,1,-20.5078125,-31.73828125,-41.015625,-3.90625,0.0,0
1586278970.3641477,178,1,-21.97265625,-15.625,-35.64453125,-20.01953125,0.0,0
1586278970.368054,178,1,-20.01953125,-17.578125,-28.3203125,-28.80859375,0.0,0
1586278970.3719602,178,1,-11.71875,0.0,-9.27734375,-17.578125,0.0,0
1586278970.3758664,178,1,-8.30078125,0.9765625,-1.46484375,-5.859375,0.0,0
1586278970.3797727,178,1,-9.765625,-8.7890625,-10.7421875,-9.765625,0.0,0
1586278970.383679,178,1,-21.484375,-23.92578125,-61.5234375,-28.3203125,0.0,0
1586278970.3875852,178,1,-23.4375,-39.0625,-74.21875,-30.76171875,0.0,0
1586278970.3914914,178,1,-19.04296875,-33.203125,-42.48046875,-22.4609375,0.0,0
1586278970.3953977,178,1,-15.625,-28.80859375,-40.0390625,-4.8828125,0.0,0
1586278970.399304,179,1,-10.7421875,-40.52734375,-49.31640625,0.9765625,0.0,0
1586278970.4032102,179,1,-11.71875,-47.36328125,-37.59765625,-20.5078125,0.0,0
1586278970.4071164,179,1,-19.04296875,-42.96875,-20.99609375,-28.3203125,0.0,0
1586278970.4110227,179,1,-22.4609375,-34.66796875,-11.71875,-23.4375,0.0,0
1586278970.414929,179,1,-21.484375,-16.11328125,-40.0390625,-11.23046875,0.0,0
1586278970.4188352,179,1,-28.3203125,-8.7890625,-47.36328125,-7.32421875,0.0,0
1586278970.4227414,179,1,-36.62109375,-28.80859375,-37.59765625,-25.87890625,0.0,0
1586278970.4266477,179,1,-31.73828125,-40.52734375,-45.41015625,-36.1328125,0.0,0
1586278970.430554,179,1,-27.83203125,-23.92578125,-27.34375,-41.50390625,0.0,0
1586278970.4344602,179,1,-22.4609375,-20.01953125,-7.8125,-32.2265625,0.0,0
1586278970.4383664,179,1,-20.99609375,-32.2265625,-30.2734375,-8.7890625,0.0,0
1586278970.4422727,179,1,-27.83203125,-37.59765625,-45.41015625,-16.6015625,0.0,0
1586278970.446179,179,1,-39.0625,-30.2734375,-39.55078125,-41.50390625,0.0,0
1586278970.4500852,179,1,-41.50390625,-27.34375,-49.31640625,-37.59765625,0.0,0
1586278970.4539914,179,1,-34.1796875,-47.36328125,-43.45703125,-15.625,0.0,0
1586278970.4578977,179,1,-32.2265625,-59.5703125,-41.50390625,-7.32421875,0.0,0
1586278970.461804,179,1,-34.66796875,-41.50390625,-67.3828125,-18.06640625,0.0,0
1586278970.4657102,179,1,-32.71484375,-31.73828125,-51.26953125,-32.2265625,0.0,0
1586278970.4696164,179,1,-22.94921875,-39.0625,-42.48046875,-23.4375,0.0,0
1586278970.4735227,179,1,-20.01953125,-39.55078125,-57.6171875,-14.16015625,0.0,0
1586278970.477429,179,1,-21.484375,-14.16015625,-17.578125,-9.27734375,0.0,0
1586278970.4813352,179,1,-21.484375,-13.18359375,8.30078125,-7.8125,0.0,0
1586278970.4852414,179,1,-20.99609375,-22.94921875,-11.23046875,-18.06640625,0.0,0
1586278970.4891477,179,1,-21.484375,-26.85546875,-35.15625,-16.11328125,0.0,0
1586278970.493054,179,1,-20.99609375,-29.78515625,-53.22265625,-8.7890625,0.0,0
1586278970.4969602,179,1,-20.01953125,-21.97265625,-56.15234375,-3.90625,0.0,0
1586278970.5008664,179,1,-20.99609375,-42.96875,-68.84765625,-12.20703125,0.0,0
1586278970.5047727,179,1,-23.92578125,-48.828125,-70.80078125,-31.25,0.0,0
1586278970.508679,179,1,-25.390625,-30.2734375,-40.0390625,-38.57421875,0.0,0
1586278970.5125852,179,1,-22.94921875,-24.90234375,-29.296875,-25.87890625,0.0,0
1586278970.5164914,179,1,-23.4375,-21.484375,-45.41015625,-16.11328125,0.0,0
1586278970.5203977,179,1,-22.94921875,-19.53125,-29.296875,-23.92578125,0.0,0
1586278970.524304,179,1,-30.76171875,-13.671875,-17.08984375,-40.0390625,0.0,0
1586278970.5282102,179,1,-33.69140625,-9.765625,-20.01953125,-42.96875,0.0,0
1586278970.5321164,179,1,-18.06640625,-12.20703125,-15.13671875,-22.4609375,0.0,0
1586278970.5360227,179,1,-9.27734375,-17.578125,-30.2734375,-1.953125,0.0,0
1586278970.539929,179,1,-15.625,-35.64453125,-33.203125,-6.8359375,0.0,0
1586278970.5438352,179,1,-15.625,-38.0859375,-55.17578125,-24.4140625,0.0,0
1586278970.5477414,179,1,-12.20703125,-34.1796875,-68.359375,-30.2734375,0.0,0
1586278970.5516477,179,1,-16.11328125,-34.1796875,-47.8515625,-20.01953125,0.0,0
1586278970.555554,179,1,-5.37109375,-35.64453125,-18.06640625,4.8828125,0.0,0
1586278970.5594602,179,1,-6.8359375,-30.76171875,-8.30078125,2.44140625,0.0,0
1586278970.5633664,179,1,-23.4375,-20.01953125,-25.87890625,-19.53125,0.0,0
1586278970.5672727,179,1,-21.97265625,-19.04296875,-35.15625,-17.08984375,0.0,0
1586278970.571179,179,1,-16.11328125,-30.2734375,-9.765625,-9.765625,0.0,0
1586278970.5750852,179,1,-16.11328125,-26.3671875,-2.9296875,-9.27734375,0.0,0
1586278970.5789914,179,1,-17.578125,-18.06640625,-34.66796875,-11.71875,0.0,0
1586278970.5828977,179,1,-24.90234375,-21.97265625,-24.4140625,-18.06640625,0.0,0
1586278970.586804,179,1,-22.94921875,-31.25,-9.765625,-28.3203125,0.0,0
1586278970.5907102,179,1,-18.06640625,-33.69140625,-60.05859375,-25.390625,0.0,0
1586278970.5946164,179,1,-20.5078125,-18.5546875,-48.33984375,-13.18359375,0.0,0
1586278970.5985227,179,1,-21.484375,-14.16015625,-4.8828125,-8.30078125,0.0,0
1586278970.602429,179,1,-21.484375,-20.99609375,-16.11328125,-19.04296875,0.0,0
1586278970.6063352,179,1,-25.390625,-33.69140625,-24.90234375,-30.2734375,0.0,0
1586278970.6102414,179,1,-26.3671875,-39.55078125,-17.578125,-24.90234375,0.0,0
1586278970.6141477,179,1,-21.484375,-40.52734375,-27.83203125,-8.7890625,0.0,0
1586278970.618054,179,1,-18.5546875,-44.921875,-50.78125,-20.5078125,0.0,0
1586278970.6219602,179,1,-21.97265625,-39.55078125,-38.0859375,-39.55078125,0.0,0
1586278970.6258664,179,1,-23.92578125,-33.203125,-32.2265625,-41.50390625,0.0,0
1586278970.6297727,179,1,-18.5546875,-27.83203125,-17.08984375,-26.3671875,0.0,0
1586278970.633679,179,1,-12.20703125,-15.13671875,-11.71875,-7.32421875,0.0,0
1586278970.6375852,179,1,-14.16015625,-11.71875,-26.3671875,-3.90625,0.0,0
1586278970.6414914,179,1,-21.97265625,-21.97265625,-42.96875,-14.16015625,0.0,0
1586278970.6453977,179,1,-29.78515625,-36.1328125,-47.36328125,-37.59765625,0.0,0
1586278970.649304,179,1,-41.015625,-36.62109375,-19.04296875,-32.2265625,0.0,0
1586278970.6532102,179,1,-51.7578125,-33.69140625,-28.80859375,-14.16015625,0.0,0
1586278970.6571164,179,1,-34.66796875,-42.96875,-43.45703125,2.9296875,0.0,0
1586278970.6610227,179,1,-26.3671875,-46.875,-22.94921875,0.9765625,0.0,0
1586278970.664929,179,1,-30.76171875,-44.921875,-22.94921875,-24.4140625,0.0,0
1586278970.6688352,179,1,-23.4375,-22.94921875,-47.36328125,-20.01953125,0.0,0
1586278970.6727414,179,1,-14.16015625,-9.27734375,-12.6953125,-0.48828125,0.0,0
1586278970.6766477,179,1,-7.32421875,-15.13671875,-5.37109375,9.765625,0.0,0
1586278970.680554,179,1,-15.625,-22.94921875,-34.66796875,6.8359375,0.0,0
1586278970.6844602,179,1,-20.5078125,-30.76171875,-42.96875,-10.7421875,0.0,0
1586278970.6883664,179,1,-17.578125,-22.94921875,-61.5234375,-19.53125,0.0,0
1586278970.6922727,179,1,-20.5078125,-16.11328125,-29.296875,-15.13671875,0.0,0
1586278970.696179,179,1,-21.484375,-22.4609375,-16.11328125,-14.16015625,0.0,0
1586278970.7000852,179,1,-22.94921875,-29.296875,-11.23046875,-12.6953125,0.0,0
1586278970.7039914,179,1,-20.99609375,-25.390625,19.53125,-15.13671875,0.0,0
1586278970.7078977,179,1,-19.53125,-31.73828125,-4.39453125,-23.92578125,0.0,0
1586278970.711804,179,1,-14.6484375,-42.96875,-37.59765625,-25.390625,0.0,0
1586278970.7157102,179,1,-10.7421875,-32.71484375,-30.76171875,-23.92578125,0.0,0
1586278970.7196164,179,1,-14.6484375,-36.62109375,-32.71484375,-20.99609375,0.0,0
1586278970.7235227,179,1,-24.4140625,-30.2734375,-36.62109375,-27.34375,0.0,0
1586278970.727429,179,1,-29.78515625,-17.578125,-40.0390625,-35.15625,0.0,0
1586278970.7313352,179,1,-22.4609375,-23.92578125,-23.4375,-24.90234375,0.0,0
1586278970.7352414,179,1,-22.4609375,0.48828125,-9.27734375,-12.6953125,0.0,0
1586278970.7391477,179,1,-30.2734375,-4.8828125,-26.3671875,-15.625,0.0,0
1586278970.743054,179,1,-40.0390625,-22.94921875,-23.92578125,-30.2734375,0.0,0
1586278970.7469602,179,1,-38.57421875,-29.296875,-27.83203125,-29.296875,0.0,0
1586278970.7508664,179,1,-33.203125,-41.50390625,-31.25,-14.6484375,0.0,0
1586278970.7547727,179,1,-27.83203125,-41.9921875,-9.765625,-5.859375,0.0,0
1586278970.758679,179,1,-34.1796875,-40.0390625,-6.8359375,-11.23046875,0.0,0
1586278970.7625852,179,1,-52.734375,-20.01953125,-43.45703125,-23.4375,0.0,0
1586278970.7664914,179,1,-35.15625,-29.78515625,-40.52734375,-27.34375,0.0,0
1586278970.7703977,179,1,-15.13671875,-35.15625,-27.34375,-21.97265625,0.0,0
1586278970.774304,179,1,-18.5546875,-34.1796875,-14.6484375,-14.16015625,0.0,0
1586278970.7782102,179,1,-20.99609375,-23.92578125,-13.18359375,-20.01953125,0.0,0
1586278970.7821164,179,1,-27.34375,-7.8125,-25.390625,-39.55078125,0.0,0
1586278970.7860227,179,1,-26.3671875,-31.73828125,-39.0625,-46.875,0.0,0
1586278970.789929,179,1,-20.99609375,-34.66796875,-32.2265625,-31.25,0.0,0
1586278970.7938352,179,1,-18.06640625,-20.99609375,-6.34765625,-13.671875,0.0,0
1586278970.7977414,179,1,-23.4375,-23.92578125,-15.625,-6.34765625,0.0,0
1586278970.8016477,179,1,-31.25,-12.20703125,-29.296875,-19.53125,0.0,0
1586278970.805554,179,1,-34.1796875,-13.671875,-29.78515625,-39.0625,0.0,0
1586278970.8094602,179,1,-31.73828125,-26.3671875,-39.0625,-34.66796875,0.0,0
1586278970.8133664,179,1,-21.97265625,-29.296875,-39.0625,-13.671875,0.0,0
1586278970.8172727,179,1,-22.4609375,-44.43359375,-35.64453125,-6.34765625,0.0,0
1586278970.821179,179,1,-31.25,-57.6171875,-25.87890625,-25.390625,0.0,0
1586278970.8250852,179,1,-28.80859375,-52.24609375,-20.01953125,-39.55078125,0.0,0
1586278970.8289914,179,1,-27.34375,-34.66796875,-26.85546875,-27.83203125,0.0,0
1586278970.8328977,179,1,-22.4609375,-8.7890625,-25.390625,-7.32421875,0.0,0
1586278970.836804,179,1,-17.08984375,-5.37109375,-39.55078125,-0.48828125,0.0,0
1586278970.8407102,179,1,-29.296875,-11.71875,-25.87890625,-20.5078125,0.0,0
1586278970.8446164,179,1,-31.73828125,-23.92578125,-21.484375,-31.73828125,0.0,0
1586278970.8485227,179,1,-28.3203125,-36.62109375,-17.578125,-31.73828125,0.0,0
1586278970.852429,179,1,-22.94921875,-32.2265625,-21.97265625,-20.99609375,0.0,0
1586278970.8563352,179,1,-23.4375,-48.33984375,-26.3671875,-3.90625,0.0,0
1586278970.8602414,179,1,-29.78515625,-58.59375,-16.11328125,-14.6484375,0.0,0
1586278970.8641477,179,1,-34.66796875,-50.29296875,-27.83203125,-33.203125,0.0,0
1586278970.868054,179,1,-32.71484375,-25.390625,-49.8046875,-28.80859375,0.0,0
1586278970.8719602,179,1,-17.578125,-26.3671875,-18.5546875,-6.34765625,0.0,0
1586278970.8758664,179,1,-11.23046875,-45.41015625,-8.30078125,-7.32421875,0.0,0
1586278970.8797727,179,1,-22.94921875,-29.78515625,-37.109375,-20.99609375,0.0,0
1586278970.883679,179,1,-28.3203125,-37.109375,-54.6875,-29.78515625,0.0,0
1586278970.8875852,179,1,-23.4375,-37.59765625,-61.03515625,-34.1796875,0.0,0
1586278970.8914914,179,1,-29.78515625,-15.13671875,-8.7890625,-21.97265625,0.0,0
1586278970.8953977,179,1,-15.13671875,-16.11328125,0.9765625,0.0,0.0,0
1586278970.899304,179,1,-4.39453125,-17.08984375,-41.9921875,-2.9296875,0.0,0
1586278970.9032102,179,1,-18.5546875,-4.8828125,-28.80859375,-20.5078125,0.0,0
1586278970.9071164,179,1,-21.97265625,-13.671875,-4.8828125,-23.92578125,0.0,0
1586278970.9110227,179,1,-20.5078125,-43.45703125,1.953125,-22.4609375,0.0,0
1586278970.914929,179,1,-12.6953125,-43.45703125,-42.48046875,-9.27734375,0.0,0
1586278970.9188352,179,1,-15.13671875,-41.015625,-73.2421875,-9.27734375,0.0,0
1586278970.9227414,179,1,-26.85546875,-51.7578125,-35.15625,-30.76171875,0.0,0
1586278970.9266477,179,1,-24.4140625,-31.25,-22.94921875,-34.66796875,0.0,0
1586278970.930554,179,1,-14.6484375,-6.34765625,-52.24609375,-22.94921875,0.0,0
1586278970.9344602,179,1,-13.18359375,-17.578125,-40.52734375,-12.6953125,0.0,0
1586278970.9383664,179,1,-12.6953125,-33.69140625,-16.11328125,-18.5546875,0.0,0
1586278970.9422727,179,1,-22.4609375,-29.296875,-23.92578125,-33.69140625,0.0,0
1586278970.946179,179,1,-27.34375,-39.55078125,-15.13671875,-29.296875,0.0,0
1586278970.9500852,179,1,-17.578125,-41.50390625,-1.953125,-20.5078125,0.0,0
1586278970.9539914,179,1,-20.99609375,-32.2265625,-10.7421875,-20.99609375,0.0,0
1586278970.9578977,179,1,-34.66796875,-22.4609375,-37.109375,-15.625,0.0,0
1586278970.961804,179,1,-34.1796875,-17.578125,-40.52734375,-20.5078125,0.0,0
1586278970.9657102,179,1,-31.25,-30.76171875,-49.31640625,-30.76171875,0.0,0
1586278970.9696164,179,1,-25.87890625,-58.10546875,-63.4765625,-32.71484375,0.0,0
1586278970.9735227,179,1,-21.97265625,-61.03515625,-38.57421875,-34.66796875,0.0,0
1586278970.977429,179,1,-31.73828125,-37.109375,-31.25,-26.85546875,0.0,0
1586278970.9813352,179,1,-38.0859375,-33.69140625,-17.08984375,-26.85546875,0.0,0
1586278970.9852414,179,1,-29.78515625,-28.80859375,-31.25,-31.73828125,0.0,0
1586278970.9891477,179,1,-23.4375,-20.5078125,-72.75390625,-31.25,0.0,0
1586278970.993054,179,1,-29.78515625,-14.6484375,-39.55078125,-20.01953125,0.0,0
1586278970.9969602,179,1,-22.4609375,-17.578125,3.90625,-10.7421875,0.0,0
1586278971.0008664,179,1,-12.6953125,-37.59765625,-19.04296875,-22.94921875,0.0,0
1586278971.0047727,179,1,-13.18359375,-34.1796875,-30.76171875,-28.3203125,0.0,0
1586278971.008679,179,1,-16.6015625,-45.8984375,-45.41015625,-32.2265625,0.0,0
1586278971.0125852,179,1,-20.99609375,-64.453125,-68.84765625,-27.34375,0.0,0
1586278971.0164914,179,1,-25.390625,-42.48046875,-42.96875,-17.08984375,0.0,0
1586278971.0203977,179,1,-21.97265625,-37.109375,-25.87890625,-17.578125,0.0,0
1586278971.024304,179,1,-19.53125,-34.66796875,-35.64453125,-25.87890625,0.0,0
1586278971.0282102,179,1,-27.83203125,0.48828125,-37.109375,-30.76171875,0.0,0
1586278971.0321164,179,1,-26.85546875,-7.8125,-21.97265625,-23.92578125,0.0,0
1586278971.0360227,179,1,-19.04296875,-33.69140625,-25.390625,-8.7890625,0.0,0
1586278971.039929,179,1,-25.87890625,-60.546875,-32.71484375,-12.20703125,0.0,0
1586278971.0438352,179,1,-34.66796875,-53.22265625,-27.34375,-36.62109375,0.0,0
1586278971.0477414,179,1,-34.1796875,-39.55078125,-26.85546875,-40.52734375,0.0,0
1586278971.0516477,179,1,-29.296875,-44.43359375,-28.3203125,-25.87890625,0.0,0
1586278971.055554,179,1,-27.83203125,-20.99609375,-17.578125,-11.71875,0.0,0
1586278971.0594602,179,1,-29.296875,-13.671875,-20.5078125,-14.6484375,0.0,0
1586278971.0633664,179,1,-29.78515625,-13.671875,-39.0625,-29.296875,0.0,0
1586278971.0672727,179,1,-28.80859375,-25.87890625,-54.19921875,-28.3203125,0.0,0
1586278971.071179,179,1,-20.5078125,-45.8984375,-41.9921875,-10.7421875,0.0,0
1586278971.0750852,179,1,-16.6015625,-48.828125,-28.80859375,-10.25390625,0.0,0
1586278971.0789914,179,1,-22.94921875,-44.921875,-46.38671875,-15.625,0.0,0
1586278971.0828977,179,1,-27.83203125,-44.43359375,-54.6875,-22.94921875,0.0,0
1586278971.086804,179,1,-22.94921875,-37.59765625,-20.99609375,-27.83203125,0.0,0
1586278971.0907102,179,1,-15.625,-9.765625,-28.3203125,-15.13671875,0.0,0
1586278971.0946164,179,1,-10.7421875,-15.625,-43.45703125,-4.39453125,0.0,0
1586278971.0985227,179,1,-13.671875,-1.46484375,-24.90234375,-8.30078125,0.0,0
1586278971.102429,179,1,-18.06640625,20.99609375,-13.18359375,-20.01953125,0.0,0
1586278971.1063352,179,1,-23.4375,-4.39453125,-5.859375,-35.15625,0.0,0
1586278971.1102414,179,1,-26.85546875,-29.296875,-16.11328125,-35.64453125,0.0,0
1586278971.1141477,179,1,-20.01953125,-37.109375,-32.2265625,-23.4375,0.0,0
1586278971.118054,179,1,-16.11328125,-39.55078125,-37.109375,-21.484375,0.0,0
1586278971.1219602,179,1,-30.76171875,-34.66796875,-35.64453125,-26.85546875,0.0,0
1586278971.1258664,179,1,-40.52734375,-29.296875,-44.921875,-26.85546875,0.0,0
1586278971.1297727,179,1,-13.671875,-17.08984375,-29.78515625,-18.06640625,0.0,0
1586278971.133679,179,1,-6.8359375,-28.3203125,-45.8984375,-9.765625,0.0,0
1586278971.1375852,179,1,-15.13671875,-30.2734375,-58.59375,-7.8125,0.0,0
1586278971.1414914,179,1,-15.13671875,-19.53125,-32.2265625,-20.01953125,0.0,0
1586278971.1453977,179,1,-26.85546875,-46.38671875,-31.25,-38.57421875,0.0,0
1586278971.149304,179,1,-29.296875,-45.8984375,-31.73828125,-26.85546875,0.0,0
1586278971.1532102,179,1,-16.6015625,-24.90234375,-18.06640625,-1.953125,0.0,0
1586278971.1571164,179,1,-22.4609375,-25.87890625,-13.671875,-9.765625,0.0,0
1586278971.1610227,179,1,-30.2734375,-26.3671875,-31.73828125,-22.94921875,0.0,0
1586278971.164929,179,1,-25.390625,-25.390625,-28.3203125,-30.2734375,0.0,0
1586278971.1688352,179,1,-19.04296875,-16.6015625,-30.2734375,-20.5078125,0.0,0
1586278971.1727414,179,1,-20.99609375,-13.671875,-47.8515625,2.9296875,0.0,0
1586278971.1766477,179,1,-23.92578125,-20.5078125,-36.1328125,8.30078125,0.0,0
1586278971.180554,179,1,-27.83203125,-17.578125,-34.66796875,-5.859375,0.0,0
1586278971.1844602,179,1,-31.73828125,-37.59765625,-59.08203125,-20.99609375,0.0,0
1586278971.1883664,179,1,-23.92578125,-44.921875,-45.8984375,-28.3203125,0.0,0
1586278971.1922727,179,1,-26.85546875,-14.6484375,-26.3671875,-13.671875,0.0,0
1586278971.196179,179,1,-31.25,-18.5546875,-9.27734375,3.41796875,0.0,0
1586278971.2000852,179,1,-15.625,-31.25,-33.203125,-10.7421875,0.0,0
1586278971.2039914,179,1,-20.99609375,-47.36328125,-42.96875,-37.59765625,0.0,0
1586278971.2078977,179,1,-31.25,-56.15234375,-0.48828125,-42.96875,0.0,0
1586278971.211804,179,1,-35.15625,-29.78515625,-17.08984375,-31.73828125,0.0,0
1586278971.2157102,179,1,-39.55078125,-16.6015625,-44.921875,-23.4375,0.0,0
1586278971.2196164,179,1,-38.0859375,-17.08984375,-32.71484375,-20.99609375,0.0,0
1586278971.2235227,179,1,-38.57421875,-13.18359375,-12.6953125,-34.66796875,0.0,0
1586278971.227429,179,1,-35.64453125,-44.921875,-42.96875,-37.109375,0.0,0
1586278971.2313352,179,1,-24.4140625,-60.546875,-73.2421875,-16.6015625,0.0,0
1586278971.2352414,179,1,-18.06640625,-18.5546875,-47.8515625,0.48828125,0.0,0
1586278971.2391477,179,1,-20.01953125,-12.6953125,-15.13671875,-6.8359375,0.0,0
1586278971.243054,179,1,-20.5078125,-28.80859375,-29.78515625,-30.76171875,0.0,0
1586278971.2469602,179,1,-30.76171875,-32.2265625,-66.89453125,-32.71484375,0.0,0
1586278971.2508664,179,1,-25.390625,-31.73828125,-39.0625,-12.20703125,0.0,0
1586278971.2547727,179,1,-12.6953125,-13.671875,5.859375,-0.9765625,0.0,0
1586278971.258679,179,1,-25.87890625,-18.5546875,-10.7421875,-18.5546875,0.0,0
1586278971.2625852,179,1,-29.78515625,-26.85546875,-26.3671875,-31.25,0.0,0
1586278971.2664914,179,1,-31.73828125,-22.4609375,-35.15625,-33.203125,0.0,0
1586278971.2703977,179,1,-41.50390625,-27.34375,-49.8046875,-25.390625,0.0,0
1586278971.274304,179,1,-35.64453125,-41.015625,-41.9921875,-19.04296875,0.0,0
1586278971.2782102,179,1,-28.80859375,-41.50390625,-50.29296875,-23.92578125,0.0,0
1586278971.2821164,179,1,-26.85546875,-26.3671875,-51.26953125,-26.3671875,0.0,0
1586278971.2860227,179,1,-28.80859375,-5.859375,-35.64453125,-39.0625,0.0,0
1586278971.289929,179,1,-27.34375,-12.20703125,-45.8984375,-38.57421875,0.0,0
1586278971.2938352,179,1,-22.4609375,-35.15625,-49.31640625,-22.94921875,0.0,0
1586278971.2977414,179,1,-22.94921875,-16.11328125,-38.57421875,-18.5546875,0.0,0
1586278971.3016477,179,1,-30.2734375,-3.41796875,-19.53125,-32.2265625,0.0,0
1586278971.305554,179,1,-28.80859375,-24.90234375,-10.7421875,-41.9921875,0.0,0
1586278971.3094602,179,1,-16.6015625,-55.6640625,-27.34375,-31.73828125,0.0,0
1586278971.3133664,179,1,-7.8125,-51.7578125,-59.08203125,-20.01953125,0.0,0
1586278971.3172727,179,1,-12.6953125,-16.11328125,-37.59765625,-12.6953125,0.0,0
1586278971.321179,179,1,-27.83203125,-10.25390625,-26.85546875,-15.13671875,0.0,0
1586278971.3250852,179,1,-24.90234375,-8.30078125,-41.015625,-28.80859375,0.0,0
1586278971.3289914,179,1,-16.6015625,-5.859375,-34.1796875,-27.34375,0.0,0
1586278971.3328977,179,1,-10.25390625,-12.20703125,-20.01953125,-9.765625,0.0,0
1586278971.336804,179,1,-9.765625,-33.69140625,-29.296875,7.32421875,0.0,0
1586278971.3407102,179,1,-11.71875,-47.36328125,-36.62109375,-5.859375,0.0,0
1586278971.3446164,179,1,-20.99609375,-39.0625,-20.5078125,-33.203125,0.0,0
1586278971.3485227,179,1,-26.85546875,-29.78515625,-10.7421875,-36.1328125,0.0,0
1586278971.352429,179,1,-10.7421875,-29.296875,-28.3203125,-20.01953125,0.0,0
1586278971.3563352,179,1,-10.7421875,-30.76171875,-40.0390625,-10.7421875,0.0,0
1586278971.3602414,179,1,-13.671875,-23.4375,-31.73828125,-12.6953125,0.0,0
1586278971.3641477,179,1,-20.99609375,-19.53125,-58.59375,-13.671875,0.0,0
1586278971.368054,179,1,-35.15625,1.46484375,-36.62109375,-26.3671875,0.0,0
1586278971.3719602,179,1,-32.71484375,12.6953125,-11.23046875,-26.3671875,0.0,0
1586278971.3758664,179,1,-34.1796875,-15.625,-50.29296875,-4.39453125,0.0,0
1586278971.3797727,179,1,-26.3671875,-41.9921875,-19.04296875,-5.859375,0.0,0
1586278971.383679,179,1,-22.4609375,-45.8984375,15.13671875,-20.01953125,0.0,0
1586278971.3875852,179,1,-30.76171875,-23.92578125,-26.85546875,-29.296875,0.0,0
1586278971.3914914,179,1,-24.90234375,-25.87890625,-39.0625,-18.5546875,0.0,0
1586278971.3953977,179,1,-27.83203125,-26.3671875,-19.04296875,0.9765625,0.0,0
1586278971.399304,179,1,-26.3671875,-9.27734375,-18.06640625,-0.9765625,0.0,0
1586278971.4032102,179,1,-25.390625,-22.4609375,-34.66796875,-22.4609375,0.0,0
1586278971.4071164,179,1,-27.34375,-30.76171875,-31.25,-26.85546875,0.0,0
1586278971.4110227,179,1,-31.25,-18.5546875,-45.41015625,-14.16015625,0.0,0
1586278971.414929,179,1,-22.94921875,-34.66796875,-42.48046875,-6.8359375,0.0,0
1586278971.4188352,179,1,-10.25390625,-34.1796875,-25.87890625,-11.23046875,0.0,0
1586278971.4227414,179,1,-9.765625,3.41796875,-51.7578125,-18.5546875,0.0,0
1586278971.4266477,179,1,-15.625,5.859375,-34.66796875,-19.53125,0.0,0
1586278971.430554,179,1,-22.4609375,-1.953125,-3.90625,-16.11328125,0.0,0
1586278971.4344602,179,1,-20.01953125,-9.27734375,-35.15625,-6.8359375,0.0,0
1586278971.4383664,179,1,-29.78515625,-30.2734375,-53.22265625,-13.18359375,0.0,0
1586278971.4422727,179,1,-49.8046875,-30.76171875,-38.57421875,-24.90234375,0.0,0
1586278971.446179,179,1,-35.15625,-35.64453125,-29.296875,-32.2265625,0.0,0
1586278971.4500852,179,1,-20.5078125,-41.9921875,-48.33984375,-42.48046875,0.0,0
1586278971.4539914,179,1,-20.5078125,-27.34375,-51.7578125,-4.39453125,0.0,0
1586278971.4578977,179,1,-24.90234375,-12.20703125,-33.203125,7.8125,0.0,0
1586278971.461804,179,1,-32.71484375,-9.27734375,-48.828125,-30.76171875,0.0,0
1586278971.4657102,179,1,-24.90234375,-20.01953125,-62.98828125,-30.76171875,0.0,0
1586278971.4696164,179,1,-24.90234375,-17.578125,-19.53125,-23.4375,0.0,0
1586278971.4735227,179,1,-23.4375,-17.578125,-12.20703125,-9.27734375,0.0,0
1586278971.477429,179,1,-22.94921875,-22.94921875,-27.83203125,-5.859375,0.0,0
1586278971.4813352,179,1,-43.9453125,-27.34375,-6.8359375,-17.08984375,0.0,0
1586278971.4852414,179,1,-46.875,-44.921875,-39.55078125,-24.90234375,0.0,0
1586278971.4891477,179,1,-28.80859375,-36.62109375,-47.8515625,-19.53125,0.0,0
1586278971.493054,179,1,-25.87890625,-20.5078125,-29.78515625,-9.27734375,0.0,0
1586278971.4969602,179,1,-24.90234375,-23.4375,-28.3203125,3.41796875,0.0,0
1586278971.5008664,179,1,-12.6953125,-19.04296875,-18.06640625,-8.30078125,0.0,0
1586278971.5047727,179,1,-20.5078125,-18.06640625,-10.7421875,-31.73828125,0.0,0
1586278971.508679,179,1,-27.34375,-17.578125,-53.7109375,-27.83203125,0.0,0
1586278971.5125852,179,1,-19.04296875,-18.5546875,-66.89453125,-5.859375,0.0,0
1586278971.5164914,179,1,-19.04296875,-39.55078125,-23.92578125,-9.765625,0.0,0
1586278971.5203977,179,1,-31.73828125,-44.43359375,-17.578125,-31.73828125,0.0,0
1586278971.524304,179,1,-33.203125,-35.64453125,-30.76171875,-39.0625,0.0,0
1586278971.5282102,179,1,-24.90234375,-20.01953125,-39.0625,-35.15625,0.0,0
1586278971.5321164,179,1,-22.4609375,-28.80859375,-35.64453125,-21.97265625,0.0,0
1586278971.5360227,179,1,-23.92578125,-34.66796875,-16.11328125,-9.27734375,0.0,0
1586278971.539929,179,1,-26.85546875,-19.53125,-13.671875,-9.765625,0.0,0
1586278971.5438352,179,1,-28.3203125,-18.5546875,-27.34375,-22.4609375,0.0,0
1586278971.5477414,179,1,-27.34375,-30.2734375,-41.9921875,-23.92578125,0.0,0
1586278971.5516477,179,1,-18.5546875,-46.38671875,-48.828125,0.48828125,0.0,0
1586278971.555554,179,1,-6.8359375,-47.8515625,-44.921875,15.13671875,0.0,0
1586278971.5594602,179,1,-25.390625,-36.1328125,-65.4296875,-0.48828125,0.0,0
1586278971.5633664,179,1,-42.96875,-29.78515625,-77.1484375,-20.99609375,0.0,0
1586278971.5672727,179,1,-20.5078125,-37.109375,-41.50390625,-33.203125,0.0,0
1586278971.571179,179,1,-8.7890625,-36.1328125,-27.83203125,-25.390625,0.0,0
1586278971.5750852,179,1,-15.625,-38.57421875,-33.203125,-9.27734375,0.0,0
1586278971.5789914,179,1,-27.83203125,-50.29296875,-18.06640625,-15.625,0.0,0
1586278971.5828977,179,1,-28.80859375,-38.57421875,-19.04296875,-26.3671875,0.0,0
1586278971.586804,179,1,-24.4140625,-32.71484375,-36.62109375,-18.5546875,0.0,0
1586278971.5907102,179,1,-22.4609375,-37.109375,-54.19921875,-14.16015625,0.0,0
1586278971.5946164,179,1,-18.5546875,-34.1796875,-43.45703125,-7.32421875,0.0,0
1586278971.5985227,179,1,-14.6484375,-31.73828125,-22.4609375,-4.8828125,0.0,0
1586278971.602429,179,1,-19.04296875,-25.87890625,-48.828125,-18.5546875,0.0,0
1586278971.6063352,179,1,-20.01953125,-29.78515625,-66.40625,-23.92578125,0.0,0
1586278971.6102414,179,1,-14.16015625,-34.1796875,-36.1328125,-16.6015625,0.0,0
1586278971.6141477,179,1,-14.6484375,-32.2265625,-30.76171875,-11.71875,0.0,0
1586278971.618054,179,1,-11.71875,-27.34375,-24.90234375,-12.6953125,0.0,0
1586278971.6219602,179,1,-30.76171875,-26.3671875,-25.390625,-25.87890625,0.0,0
1586278971.6258664,179,1,-31.73828125,-17.578125,-28.3203125,-26.3671875,0.0,0
1586278971.6297727,179,1,-14.6484375,-20.5078125,-22.4609375,-21.97265625,0.0,0
1586278971.633679,179,1,-21.484375,-39.55078125,-27.34375,-26.3671875,0.0,0
1586278971.6375852,179,1,-29.296875,-28.3203125,-32.71484375,-20.01953125,0.0,0
1586278971.6414914,179,1,-30.76171875,-15.13671875,-29.78515625,-21.97265625,0.0,0
1586278971.6453977,179,1,-38.0859375,-24.4140625,-19.53125,-45.41015625,0.0,0
1586278971.649304,179,1,-39.55078125,-32.71484375,-57.12890625,-40.52734375,0.0,0
1586278971.6532102,179,1,-34.66796875,-42.96875,-73.2421875,-19.53125,0.0,0
1586278971.6571164,179,1,-34.1796875,-41.50390625,-30.76171875,-15.625,0.0,0
1586278971.6610227,179,1,-25.390625,-43.9453125,-27.83203125,-17.578125,0.0,0
1586278971.664929,179,1,-24.4140625,-47.8515625,-49.31640625,-33.203125,0.0,0
1586278971.6688352,179,1,-23.92578125,-39.0625,-27.34375,-30.2734375,0.0,0
1586278971.6727414,179,1,-26.3671875,-21.97265625,-2.9296875,1.46484375,0.0,0
1586278971.6766477,179,1,-29.296875,-21.97265625,-18.5546875,13.18359375,0.0,0
1586278971.680554,179,1,-17.08984375,-33.203125,-33.203125,-1.953125,0.0,0
1586278971.6844602,179,1,-18.06640625,-27.34375,-33.203125,-22.94921875,0.0,0
1586278971.6883664,179,1,-24.4140625,-22.94921875,-30.2734375,-23.92578125,0.0,0
1586278971.6922727,179,1,-22.4609375,-29.78515625,-29.296875,-4.39453125,0.0,0
1586278971.696179,179,1,-20.99609375,-28.3203125,-31.73828125,7.32421875,0.0,0
1586278971.7000852,179,1,-36.1328125,-39.55078125,-39.55078125,-14.16015625,0.0,0
1586278971.7039914,179,1,-43.45703125,-57.6171875,-31.73828125,-31.73828125,0.0,0
1586278971.7078977,179,1,-37.109375,-63.4765625,-36.1328125,-34.1796875,0.0,0
1586278971.711804,179,1,-25.87890625,-44.921875,-41.9921875,-26.3671875,0.0,0
1586278971.7157102,179,1,-23.4375,-31.25,-35.64453125,-14.16015625,0.0,0
1586278971.7196164,179,1,-21.97265625,-22.4609375,-14.6484375,-23.92578125,0.0,0
1586278971.7235227,179,1,-19.53125,-20.5078125,-17.08984375,-34.66796875,0.0,0
1586278971.727429,179,1,-20.99609375,-21.97265625,-42.96875,-30.2734375,0.0,0
1586278971.7313352,179,1,-17.578125,-8.30078125,-45.8984375,-18.06640625,0.0,0
1586278971.7352414,179,1,-27.34375,-21.484375,-30.2734375,-17.578125,0.0,0
1586278971.7391477,179,1,-31.73828125,-34.1796875,-13.18359375,-14.16015625,0.0,0
1586278971.743054,179,1,-30.2734375,-41.015625,-31.25,-23.92578125,0.0,0
1586278971.7469602,179,1,-29.296875,-36.62109375,-50.29296875,-32.71484375,0.0,0
1586278971.7508664,179,1,-24.90234375,-35.64453125,-48.33984375,-10.7421875,0.0,0
1586278971.7547727,179,1,-18.06640625,-46.875,-52.734375,-3.41796875,0.0,0
1586278971.758679,179,1,-13.18359375,-34.66796875,-35.15625,-3.90625,0.0,0
1586278971.7625852,179,1,-18.5546875,-33.203125,-26.85546875,-11.23046875,0.0,0
1586278971.7664914,179,1,-15.13671875,-41.50390625,-27.34375,-17.578125,0.0,0
1586278971.7703977,179,1,-11.71875,-25.87890625,-33.203125,-9.27734375,0.0,0
1586278971.774304,179,1,-14.6484375,-20.5078125,-36.62109375,-2.44140625,0.0,0
1586278971.7782102,179,1,-13.671875,-9.27734375,-19.04296875,-0.9765625,0.0,0
1586278971.7821164,179,1,-18.06640625,-29.78515625,-7.8125,-17.578125,0.0,0
1586278971.7860227,179,1,-28.80859375,-55.6640625,-20.5078125,-34.1796875,0.0,0
1586278971.789929,179,1,-21.97265625,-43.45703125,-40.52734375,-14.16015625,0.0,0
1586278971.7938352,179,1,-11.71875,-44.921875,-33.203125,-3.41796875,0.0,0
1586278971.7977414,179,1,-19.53125,-32.71484375,-8.7890625,-21.97265625,0.0,0
1586278971.8016477,179,1,-30.76171875,-23.92578125,-30.2734375,-35.15625,0.0,0
1586278971.805554,179,1,-25.87890625,-28.80859375,-56.640625,-41.015625,0.0,0
1586278971.8094602,179,1,-19.53125,-24.4140625,-48.33984375,-35.15625,0.0,0
1586278971.8133664,179,1,-18.5546875,-18.06640625,-30.2734375,-22.94921875,0.0,0
1586278971.8172727,179,1,-20.01953125,-35.15625,-29.78515625,-27.83203125,0.0,0
1586278971.821179,179,1,-32.2265625,-42.96875,-35.64453125,-49.31640625,0.0,0
1586278971.8250852,179,1,-42.96875,-32.71484375,-61.03515625,-63.96484375,0.0,0
1586278971.8289914,179,1,-30.76171875,-26.3671875,-58.59375,-42.48046875,0.0,0
1586278971.8328977,179,1,-14.16015625,-38.57421875,-25.390625,-17.578125,0.0,0
1586278971.836804,179,1,-30.2734375,-29.78515625,-46.38671875,-20.99609375,0.0,0
1586278971.8407102,179,1,-41.50390625,-8.7890625,-33.69140625,-27.83203125,0.0,0
1586278971.8446164,179,1,-22.94921875,-23.4375,-15.625,-32.71484375,0.0,0
1586278971.8485227,179,1,-8.30078125,-22.4609375,-25.87890625,-25.87890625,0.0,0
1586278971.852429,179,1,-5.859375,-7.32421875,-11.71875,-9.765625,0.0,0
1586278971.8563352,179,1,-5.37109375,-21.484375,-24.4140625,8.7890625,0.0,0
1586278971.8602414,179,1,-13.18359375,-29.78515625,-41.50390625,-6.8359375,0.0,0
1586278971.8641477,179,1,-24.4140625,-21.97265625,-28.3203125,-31.73828125,0.0,0
1586278971.868054,179,1,-25.390625,-25.87890625,-45.41015625,-32.2265625,0.0,0
1586278971.8719602,179,1,-14.16015625,-34.66796875,-62.98828125,-13.18359375,0.0,0
1586278971.8758664,179,1,-18.5546875,-37.109375,-43.9453125,1.46484375,0.0,0
1586278971.8797727,179,1,-35.64453125,-35.15625,-29.296875,-18.5546875,0.0,0
1586278971.883679,179,1,-35.64453125,-29.78515625,-12.20703125,-33.203125,0.0,0
1586278971.8875852,179,1,-33.203125,-24.90234375,-24.4140625,-31.73828125,0.0,0
1586278971.8914914,179,1,-31.73828125,-31.73828125,-34.66796875,-22.4609375,0.0,0
1586278971.8953977,179,1,-25.87890625,-31.25,-45.41015625,-20.01953125,0.0,0
1586278971.899304,179,1,-33.203125,-39.55078125,-26.3671875,-35.64453125,0.0,0
1586278971.9032102,179,1,-41.9921875,-47.36328125,-32.2265625,-58.59375,0.0,0
1586278971.9071164,179,1,-34.1796875,-21.97265625,-44.921875,-58.10546875,0.0,0
1586278971.9110227,179,1,-21.484375,-7.8125,-19.53125,-35.64453125,0.0,0
1586278971.914929,179,1,-17.578125,-22.94921875,-37.109375,-26.3671875,0.0,0
1586278971.9188352,179,1,-22.4609375,-25.390625,-29.296875,-26.3671875,0.0,0
1586278971.9227414,179,1,-33.69140625,-19.04296875,-28.3203125,-39.55078125,0.0,0
1586278971.9266477,179,1,-32.71484375,-27.83203125,-36.1328125,-40.52734375,0.0,0
1586278971.930554,179,1,-24.4140625,-34.1796875,-32.2265625,-14.16015625,0.0,0
1586278971.9344602,179,1,-17.08984375,-22.4609375,-36.1328125,0.9765625,0.0,0
1586278971.9383664,179,1,-15.13671875,-18.5546875,-31.73828125,-3.90625,0.0,0
1586278971.9422727,179,1,-23.4375,-25.87890625,-15.625,-14.16015625,0.0,0
1586278971.946179,179,1,-27.83203125,-21.484375,-22.94921875,-25.390625,0.0,0
1586278971.9500852,179,1,-29.78515625,-8.7890625,-40.0390625,-24.90234375,0.0,0
1586278971.9539914,179,1,-26.85546875,-11.71875,-43.45703125,-12.20703125,0.0,0
1586278971.9578977,179,1,-21.484375,-29.296875,-23.92578125,-11.23046875,0.0,0
1586278971.961804,179,1,-29.78515625,-41.015625,-15.625,-23.4375,0.0,0
1586278971.9657102,179,1,-30.76171875,-35.64453125,-50.78125,-22.94921875,0.0,0
1586278971.9696164,179,1,-20.5078125,-21.484375,-44.43359375,-2.44140625,0.0,0
1586278971.9735227,179,1,-13.671875,-19.53125,-6.34765625,14.16015625,0.0,0
1586278971.977429,179,1,-21.484375,-36.62109375,-35.15625,4.39453125,0.0,0
1586278971.9813352,179,1,-25.390625,-37.109375,-68.359375,-20.5078125,0.0,0
1586278971.9852414,179,1,-19.53125,-27.83203125,-38.57421875,-33.203125,0.0,0
1586278971.9891477,179,1,-17.578125,-35.64453125,-33.69140625,-21.484375,0.0,0
1586278971.993054,179,1,-11.23046875,-39.55078125,-58.59375,-1.953125,0.0,0
1586278971.9969602,179,1,-7.32421875,-12.20703125,-42.96875,-5.37109375,0.0,0
1586278972.0008664,179,1,-16.11328125,-9.27734375,-33.69140625,-26.85546875,0.0,0
1586278972.0047727,179,1,-21.484375,-34.1796875,-32.2265625,-32.2265625,0.0,0
1586278972.008679,179,1,-25.87890625,-35.15625,-24.90234375,-23.4375,0.0,0
1586278972.0125852,179,1,-22.4609375,-32.71484375,-48.828125,-18.5546875,0.0,0
1586278972.0164914,179,1,-15.13671875,-40.0390625,-49.31640625,-13.18359375,0.0,0
1586278972.0203977,179,1,-21.484375,-35.15625,-37.59765625,-18.06640625,0.0,0
1586278972.024304,179,1,-27.83203125,-28.3203125,-41.9921875,-17.578125,0.0,0
1586278972.0282102,179,1,-20.01953125,-23.92578125,-50.29296875,-7.8125,0.0,0
1586278972.0321164,179,1,-30.76171875,-27.34375,-55.6640625,-5.859375,0.0,0
1586278972.0360227,179,1,-30.2734375,-34.1796875,-25.390625,7.32421875,0.0,0
1586278972.039929,179,1,-18.06640625,-31.25,-24.4140625,3.90625,0.0,0
1586278972.0438352,179,1,-20.5078125,-32.71484375,-55.17578125,-12.6953125,0.0,0
1586278972.0477414,179,1,-21.484375,-52.734375,-43.45703125,-16.11328125,0.0,0
1586278972.0516477,179,1,-28.3203125,-58.59375,-47.8515625,-17.578125,0.0,0
1586278972.055554,179,1,-29.296875,-46.38671875,-57.12890625,-13.671875,0.0,0
1586278972.0594602,179,1,-27.34375,-21.484375,-57.12890625,-8.7890625,0.0,0
1586278972.0633664,179,1,-37.109375,-8.30078125,-72.75390625,-32.2265625,0.0,0
1586278972.0672727,179,1,-36.62109375,-22.4609375,-50.29296875,-34.66796875,0.0,0
1586278972.071179,179,1,-31.25,-32.2265625,-58.59375,-13.18359375,0.0,0
1586278972.0750852,179,1,-20.99609375,-38.0859375,-55.17578125,-12.6953125,0.0,0
1586278972.0789914,179,1,-11.23046875,-28.80859375,-19.53125,-14.6484375,0.0,0
1586278972.0828977,179,1,-21.484375,-16.6015625,-15.13671875,-29.296875,0.0,0
1586278972.086804,179,1,-20.5078125,-41.50390625,-6.34765625,-40.0390625,0.0,0
1586278972.0907102,179,1,-15.13671875,-57.6171875,-20.99609375,-29.78515625,0.0,0
1586278972.0946164,179,1,-11.71875,-37.59765625,-42.96875,-20.99609375,0.0,0
1586278972.0985227,179,1,-15.625,-25.87890625,-52.734375,-22.94921875,0.0,0
1586278972.102429,179,1,-26.3671875,-18.06640625,-49.8046875,-29.296875,0.0,0
1586278972.1063352,179,1,-30.76171875,-23.4375,-36.1328125,-39.55078125,0.0,0
1586278972.1102414,179,1,-33.203125,-39.55078125,-64.453125,-31.25,0.0,0
1586278972.1141477,179,1,-27.83203125,-45.8984375,-61.5234375,-6.34765625,0.0,0
1586278972.118054,179,1,-27.83203125,-34.66796875,-52.734375,-8.30078125,0.0,0
1586278972.1219602,179,1,-32.2265625,-33.203125,-66.89453125,-29.78515625,0.0,0
1586278972.1258664,179,1,-28.3203125,-46.875,-36.62109375,-29.78515625,0.0,0
1586278972.1297727,179,1,-21.97265625,-41.015625,-43.45703125,-17.578125,0.0,0
1586278972.133679,179,1,-14.6484375,-21.97265625,-30.76171875,0.48828125,0.0,0
1586278972.1375852,179,1,-18.5546875,-9.27734375,-10.7421875,1.46484375,0.0,0
1586278972.1414914,179,1,-25.87890625,-23.92578125,-29.296875,-20.5078125,0.0,0
1586278972.1453977,179,1,-32.71484375,-45.8984375,-37.59765625,-37.109375,0.0,0
1586278972.149304,179,1,-23.4375,-25.87890625,-41.015625,-31.73828125,0.0,0
1586278972.1532102,179,1,-19.53125,-9.27734375,-54.19921875,-18.5546875,0.0,0
1586278972.1571164,179,1,-24.90234375,-23.92578125,-51.26953125,-12.20703125,0.0,0
1586278972.1610227,179,1,-34.66796875,-31.73828125,-59.08203125,-12.6953125,0.0,0
1586278972.164929,179,1,-38.0859375,-24.90234375,-61.03515625,-27.34375,0.0,0
1586278972.1688352,179,1,-21.97265625,-20.01953125,-36.62109375,-24.90234375,0.0,0
1586278972.1727414,179,1,-23.4375,-23.4375,-4.39453125,-9.27734375,0.0,0
1586278972.1766477,179,1,-24.90234375,-32.71484375,-13.671875,-3.90625,0.0,0
1586278972.180554,179,1,-18.06640625,-41.9921875,-24.90234375,-19.04296875,0.0,0
1586278972.1844602,179,1,-30.2734375,-38.0859375,-28.3203125,-36.1328125,0.0,0
1586278972.1883664,179,1,-29.296875,-21.97265625,-44.921875,-35.15625,0.0,0
1586278972.1922727,179,1,-24.90234375,-14.6484375,-44.921875,-18.06640625,0.0,0
1586278972.196179,179,1,-29.78515625,-42.96875,-25.87890625,-10.7421875,0.0,0
1586278972.2000852,179,1,-17.578125,-49.31640625,-14.6484375,-12.6953125,0.0,0
1586278972.2039914,179,1,-19.04296875,-21.484375,-44.43359375,-6.8359375,0.0,0
1586278972.2078977,179,1,-28.3203125,-13.671875,-64.94140625,-8.30078125,0.0,0
1586278972.211804,179,1,-20.99609375,-16.11328125,-54.6875,-12.20703125,0.0,0
1586278972.2157102,179,1,-20.5078125,-32.71484375,-57.12890625,-18.06640625,0.0,0
1586278972.2196164,179,1,-23.92578125,-41.015625,-51.26953125,-33.203125,0.0,0
1586278972.2235227,179,1,-25.390625,-38.57421875,-26.3671875,-39.0625,0.0,0
1586278972.227429,179,1,-25.87890625,-44.43359375,-16.11328125,-31.25,0.0,0
1586278972.2313352,179,1,-20.5078125,-35.64453125,-22.4609375,-23.4375,0.0,0
1586278972.2352414,179,1,-23.4375,-25.87890625,-40.0390625,-13.18359375,0.0,0
1586278972.2391477,179,1,-26.3671875,-25.87890625,-24.4140625,-15.625,0.0,0
1586278972.243054,179,1,-32.71484375,-26.3671875,-19.53125,-27.83203125,0.0,0
1586278972.2469602,179,1,-37.59765625,-30.76171875,-39.55078125,-34.1796875,0.0,0
1586278972.2508664,179,1,-30.76171875,-35.15625,-49.8046875,-24.4140625,0.0,0
1586278972.2547727,179,1,-29.296875,-21.97265625,-53.7109375,-16.11328125,0.0,0
1586278972.258679,179,1,-28.3203125,-27.34375,-54.6875,-23.4375,0.0,0
1586278972.2625852,179,1,-28.3203125,-45.8984375,-51.7578125,-28.80859375,0.0,0
1586278972.2664914,179,1,-28.80859375,-27.83203125,-38.57421875,-25.87890625,0.0,0
1586278972.2703977,179,1,-23.92578125,-13.671875,-26.3671875,-17.578125,0.0,0
1586278972.274304,179,1,-17.08984375,-17.08984375,-35.64453125,-7.32421875,0.0,0
1586278972.2782102,179,1,-7.8125,-23.4375,-27.34375,-0.9765625,0.0,0
1586278972.2821164,179,1,-6.34765625,-35.15625,-24.90234375,-22.94921875,0.0,0
1586278972.2860227,179,1,-9.765625,-20.01953125,-30.76171875,-45.41015625,0.0,0
1586278972.289929,179,1,-15.625,0.48828125,-43.45703125,-29.296875,0.0,0
1586278972.2938352,179,1,-20.5078125,-20.99609375,-44.43359375,-7.32421875,0.0,0
1586278972.2977414,179,1,-27.34375,-42.48046875,-47.8515625,-8.30078125,0.0,0
1586278972.3016477,179,1,-31.25,-49.8046875,-46.875,-27.34375,0.0,0
1586278972.305554,179,1,-20.99609375,-40.0390625,-14.16015625,-29.296875,0.0,0
1586278972.3094602,179,1,-18.06640625,-26.3671875,-29.296875,-14.6484375,0.0,0
1586278972.3133664,179,1,-16.6015625,-22.94921875,-41.015625,-4.39453125,0.0,0
1586278972.3172727,179,1,-12.20703125,-19.53125,-38.57421875,-8.7890625,0.0,0
1586278972.321179,179,1,-22.94921875,-40.52734375,-31.73828125,-25.390625,0.0,0
1586278972.3250852,179,1,-41.015625,-50.29296875,-36.62109375,-41.015625,0.0,0
1586278972.3289914,179,1,-44.43359375,-13.18359375,-56.640625,-35.64453125,0.0,0
1586278972.3328977,179,1,-26.3671875,-1.46484375,-41.50390625,-9.765625,0.0,0
1586278972.336804,179,1,-19.53125,-19.53125,-38.0859375,5.37109375,0.0,0
1586278972.3407102,179,1,-27.83203125,-22.94921875,-24.4140625,-8.7890625,0.0,0
1586278972.3446164,179,1,-34.1796875,-23.4375,-20.01953125,-23.92578125,0.0,0
1586278972.3485227,179,1,-27.83203125,-32.2265625,-27.83203125,-17.08984375,0.0,0
1586278972.352429,179,1,-18.5546875,-28.3203125,-17.578125,0.9765625,0.0,0
1586278972.3563352,179,1,-10.7421875,-30.2734375,-17.08984375,3.90625,0.0,0
1586278972.3602414,179,1,-14.16015625,-26.3671875,-19.04296875,-10.25390625,0.0,0
1586278972.3641477,179,1,-23.4375,-30.2734375,-29.296875,-23.92578125,0.0,0
1586278972.368054,179,1,-23.92578125,-42.96875,-41.50390625,-21.484375,0.0,0
1586278972.3719602,179,1,-18.5546875,-33.203125,-48.828125,-6.34765625,0.0,0
1586278972.3758664,179,1,-17.578125,-18.06640625,-40.52734375,0.48828125,0.0,0
1586278972.3797727,179,1,-22.94921875,-17.578125,-35.64453125,-11.23046875,0.0,0
1586278972.383679,179,1,-27.83203125,-29.78515625,-57.6171875,-28.80859375,0.0,0
1586278972.3875852,179,1,-23.92578125,-24.4140625,-43.9453125,-28.3203125,0.0,0
1586278972.3914914,179,1,-16.6015625,-11.71875,-10.7421875,-21.97265625,0.0,0
1586278972.3953977,179,1,-6.8359375,-2.44140625,-11.23046875,-13.671875,0.0,0
1586278972.399304,179,1,-13.18359375,-16.11328125,-29.78515625,-20.99609375,0.0,0
1586278972.4032102,179,1,-27.83203125,-38.57421875,-26.85546875,-36.62109375,0.0,0
1586278972.4071164,179,1,-26.85546875,-34.1796875,-38.57421875,-38.57421875,0.0,0
1586278972.4110227,179,1,-25.87890625,-27.34375,-47.36328125,-24.90234375,0.0,0
1586278972.414929,180,1,-27.34375,-40.0390625,-38.57421875,-9.765625,0.0,0
1586278972.4188352,180,1,-30.2734375,-50.29296875,-43.9453125,-20.5078125,0.0,0
1586278972.4227414,180,1,-26.85546875,-48.828125,-35.64453125,-32.2265625,0.0,0
1586278972.4266477,180,1,-23.4375,-29.296875,-15.625,-25.390625,0.0,0
1586278972.430554,180,1,-30.2734375,-13.18359375,-24.90234375,-12.6953125,0.0,0
1586278972.4344602,180,1,-26.3671875,-21.484375,-33.203125,-3.90625,0.0,0
1586278972.4383664,180,1,-25.390625,-28.80859375,-33.69140625,-4.8828125,0.0,0
1586278972.4422727,180,1,-32.71484375,-44.43359375,-49.31640625,-17.578125,0.0,0
1586278972.446179,180,1,-29.78515625,-37.109375,-41.50390625,-21.97265625,0.0,0
1586278972.4500852,180,1,-15.13671875,-19.53125,-31.25,-11.23046875,0.0,0
1586278972.4539914,180,1,-5.859375,-17.578125,-34.1796875,-8.30078125,0.0,0
1586278972.4578977,180,1,-12.6953125,-27.34375,-32.71484375,-11.23046875,0.0,0
1586278972.461804,180,1,-21.484375,-40.52734375,-47.36328125,-17.08984375,0.0,0
1586278972.4657102,180,1,-28.3203125,-37.109375,-53.7109375,-30.2734375,0.0,0
1586278972.4696164,180,1,-29.78515625,-41.015625,-46.38671875,-17.578125,0.0,0
1586278972.4735227,180,1,-17.08984375,-32.71484375,-62.5,-12.20703125,0.0,0
1586278972.477429,180,1,-13.671875,-31.25,-49.8046875,-15.13671875,0.0,0
1586278972.4813352,180,1,-31.73828125,-39.0625,-15.13671875,-20.01953125,0.0,0
1586278972.4852414,180,1,-37.109375,-19.53125,-12.6953125,-35.15625,0.0,0
1586278972.4891477,180,1,-27.83203125,-15.13671875,-33.69140625,-21.97265625,0.0,0
1586278972.493054,180,1,-23.4375,-4.39453125,-31.25,-6.8359375,0.0,0
1586278972.4969602,180,1,-26.3671875,-10.7421875,-23.4375,-16.11328125,0.0,0
1586278972.5008664,180,1,-33.69140625,-53.22265625,-51.26953125,-34.66796875,0.0,0
1586278972.5047727,180,1,-39.0625,-41.50390625,-60.05859375,-39.55078125,0.0,0
1586278972.508679,180,1,-38.0859375,-18.5546875,-53.22265625,-29.78515625,0.0,0
1586278972.5125852,180,1,-35.64453125,-29.296875,-43.45703125,-12.6953125,0.0,0
1586278972.5164914,180,1,-35.15625,-25.390625,-34.1796875,-6.8359375,0.0,0
1586278972.5203977,180,1,-39.55078125,-24.4140625,-52.734375,-22.94921875,0.0,0
1586278972.524304,180,1,-32.71484375,-36.1328125,-43.45703125,-28.80859375,0.0,0
1586278972.5282102,180,1,-22.94921875,-36.62109375,-37.59765625,-23.4375,0.0,0
1586278972.5321164,180,1,-16.11328125,-24.4140625,-59.08203125,-8.30078125,0.0,0
1586278972.5360227,180,1,-15.13671875,-21.484375,-40.52734375,-0.48828125,0.0,0
1586278972.539929,180,1,-14.16015625,-21.97265625,-22.4609375,-21.484375,0.0,0
1586278972.5438352,180,1,-22.4609375,-41.015625,-47.8515625,-32.71484375,0.0,0
1586278972.5477414,180,1,-32.71484375,-42.48046875,-50.78125,-22.4609375,0.0,0
1586278972.5516477,180,1,-22.4609375,-10.25390625,-36.1328125,-0.9765625,0.0,0
1586278972.555554,180,1,-13.18359375,-4.39453125,-40.0390625,-0.48828125,0.0,0
1586278972.5594602,180,1,-17.578125,-25.87890625,-34.1796875,-14.6484375,0.0,0
1586278972.5633664,180,1,-29.296875,-17.08984375,-16.11328125,-26.3671875,0.0,0
1586278972.5672727,180,1,-27.83203125,-11.23046875,-10.7421875,-21.484375,0.0,0
1586278972.571179,180,1,-15.13671875,-35.64453125,-33.69140625,-7.8125,0.0,0
1586278972.5750852,180,1,-16.6015625,-43.9453125,-57.6171875,-7.8125,0.0,0
1586278972.5789914,180,1,-26.85546875,-35.15625,-58.59375,-13.18359375,0.0,0
1586278972.5828977,180,1,-35.64453125,-32.2265625,-52.734375,-26.85546875,0.0,0
1586278972.586804,180,1,-30.2734375,-36.1328125,-38.57421875,-39.55078125,0.0,0
1586278972.5907102,180,1,-16.6015625,-31.25,-40.0390625,-25.390625,0.0,0
1586278972.5946164,180,1,-19.53125,-15.625,-29.78515625,-4.39453125,0.0,0
1586278972.5985227,180,1,-31.73828125,-12.6953125,-30.76171875,-21.484375,0.0,0
1586278972.602429,180,1,-39.55078125,-21.484375,-36.62109375,-36.1328125,0.0,0
1586278972.6063352,180,1,-42.48046875,-21.97265625,-40.0390625,-26.3671875,0.0,0
1586278972.6102414,180,1,-37.109375,-30.2734375,-38.57421875,-14.6484375,0.0,0
1586278972.6141477,180,1,-33.203125,-58.10546875,-24.90234375,-5.37109375,0.0,0
1586278972.618054,180,1,-38.0859375,-71.2890625,-5.859375,-13.18359375,0.0,0
1586278972.6219602,180,1,-34.1796875,-65.91796875,-20.5078125,-26.85546875,0.0,0
1586278972.6258664,180,1,-26.85546875,-43.45703125,-59.5703125,-30.76171875,0.0,0
1586278972.6297727,180,1,-20.5078125,-12.6953125,-59.5703125,-32.71484375,0.0,0
1586278972.633679,180,1,-14.16015625,-0.48828125,-35.64453125,-18.06640625,0.0,0
1586278972.6375852,180,1,-11.23046875,-16.6015625,-36.1328125,-14.16015625,0.0,0
1586278972.6414914,180,1,-15.13671875,-24.90234375,-45.41015625,-25.390625,0.0,0
1586278972.6453977,180,1,-15.625,-19.53125,-45.8984375,-34.66796875,0.0,0
1586278972.649304,180,1,-14.6484375,-23.4375,-44.921875,-31.25,0.0,0
1586278972.6532102,180,1,-19.53125,-36.62109375,-8.7890625,-12.20703125,0.0,0
1586278972.6571164,180,1,-22.4609375,-42.48046875,-16.11328125,-8.7890625,0.0,0
1586278972.6610227,180,1,-22.94921875,-18.5546875,-42.96875,-19.53125,0.0,0
1586278972.664929,180,1,-27.83203125,-10.7421875,-42.48046875,-23.92578125,0.0,0
1586278972.6688352,180,1,-22.94921875,-30.2734375,-61.03515625,-20.5078125,0.0,0
1586278972.6727414,180,1,-10.25390625,-50.78125,-49.31640625,-8.30078125,0.0,0
1586278972.6766477,180,1,-16.6015625,-48.828125,-30.2734375,-14.16015625,0.0,0
1586278972.680554,180,1,-26.85546875,-25.87890625,-21.484375,-34.1796875,0.0,0
1586278972.6844602,180,1,-38.0859375,-25.87890625,-27.34375,-44.43359375,0.0,0
1586278972.6883664,180,1,-41.50390625,-25.87890625,-34.1796875,-42.96875,0.0,0
1586278972.6922727,180,1,-27.83203125,-25.390625,-17.08984375,-26.3671875,0.0,0
1586278972.696179,180,1,-27.34375,-27.34375,-26.3671875,-16.11328125,0.0,0
1586278972.7000852,180,1,-30.76171875,-24.90234375,-39.55078125,-13.671875,0.0,0
1586278972.7039914,180,1,-32.2265625,-12.6953125,-41.015625,-18.06640625,0.0,0
1586278972.7078977,180,1,-31.73828125,-20.5078125,-42.96875,-11.71875,0.0,0
1586278972.711804,180,1,-29.78515625,-37.109375,-47.36328125,-1.46484375,0.0,0
1586278972.7157102,180,1,-32.71484375,-36.62109375,-49.31640625,-4.39453125,0.0,0
1586278972.7196164,180,1,-36.1328125,-27.83203125,-25.390625,-8.7890625,0.0,0
1586278972.7235227,180,1,-43.45703125,-17.08984375,-29.296875,-21.97265625,0.0,0
1586278972.727429,180,1,-39.0625,-31.73828125,-36.62109375,-22.94921875,0.0,0
1586278972.7313352,180,1,-23.4375,-46.38671875,-14.16015625,0.9765625,0.0,0
1586278972.7352414,180,1,-17.08984375,-50.29296875,-15.13671875,16.6015625,0.0,0
1586278972.7391477,180,1,-25.390625,-42.96875,-20.01953125,3.41796875,0.0,0
1586278972.743054,180,1,-28.80859375,-18.06640625,-12.20703125,-19.53125,0.0,0
1586278972.7469602,180,1,-20.5078125,-14.6484375,-32.71484375,-27.83203125,0.0,0
1586278972.7508664,180,1,-10.25390625,-29.78515625,-61.03515625,-15.625,0.0,0
1586278972.7547727,180,1,-4.8828125,-26.3671875,-50.78125,-3.90625,0.0,0
1586278972.758679,180,1,-9.765625,-30.2734375,-22.4609375,-12.20703125,0.0,0
1586278972.7625852,180,1,-17.08984375,-25.390625,-26.3671875,-26.85546875,0.0,0
1586278972.7664914,180,1,-22.94921875,-24.4140625,-44.921875,-33.69140625,0.0,0
1586278972.7703977,180,1,-25.87890625,-42.48046875,-27.34375,-31.25,0.0,0
1586278972.774304,180,1,-29.78515625,-50.78125,-42.96875,-21.97265625,0.0,0
1586278972.7782102,180,1,-31.25,-20.5078125,-59.08203125,-13.18359375,0.0,0
1586278972.7821164,180,1,-31.73828125,-22.4609375,-20.01953125,-24.4140625,0.0,0
1586278972.7860227,180,1,-35.64453125,-53.22265625,-17.578125,-34.66796875,0.0,0
1586278972.789929,180,1,-26.85546875,-34.66796875,-27.83203125,-11.23046875,0.0,0
1586278972.7938352,180,1,-20.99609375,-26.3671875,-21.484375,5.37109375,0.0,0
1586278972.7977414,180,1,-29.78515625,-12.20703125,-35.15625,-2.9296875,0.0,0
1586278972.8016477,180,1,-35.64453125,-18.06640625,-36.1328125,-22.94921875,0.0,0
1586278972.805554,180,1,-25.390625,-41.50390625,-34.1796875,-20.01953125,0.0,0
1586278972.8094602,180,1,-20.01953125,-30.2734375,-26.3671875,-4.8828125,0.0,0
1586278972.8133664,180,1,-26.85546875,-12.6953125,-15.625,-10.7421875,0.0,0
1586278972.8172727,180,1,-36.1328125,-25.87890625,-23.92578125,-18.06640625,0.0,0
1586278972.821179,180,1,-43.45703125,-40.0390625,-32.2265625,-17.578125,0.0,0
1586278972.8250852,180,1,-46.875,-22.4609375,-61.03515625,-25.87890625,0.0,0
1586278972.8289914,180,1,-46.38671875,-27.34375,-62.01171875,-32.2265625,0.0,0
1586278972.8328977,180,1,-44.921875,-28.3203125,-26.85546875,-15.625,0.0,0
1586278972.836804,180,1,-43.45703125,-29.296875,-14.16015625,-8.30078125,0.0,0
1586278972.8407102,180,1,-44.921875,-43.45703125,-22.4609375,-18.06640625,0.0,0
1586278972.8446164,180,1,-52.24609375,-41.50390625,-32.2265625,-30.76171875,0.0,0
1586278972.8485227,180,1,-41.50390625,-26.3671875,-49.8046875,-19.04296875,0.0,0
1586278972.852429,180,1,-30.76171875,-23.92578125,-58.59375,-2.9296875,0.0,0
1586278972.8563352,180,1,-34.1796875,-40.52734375,-38.0859375,-10.7421875,0.0,0
1586278972.8602414,180,1,-34.66796875,-31.73828125,-47.36328125,-33.203125,0.0,0
1586278972.8641477,180,1,-32.2265625,-16.11328125,-51.7578125,-36.1328125,0.0,0
1586278972.868054,180,1,-21.484375,-14.16015625,-33.203125,-24.90234375,0.0,0
1586278972.8719602,180,1,-12.6953125,-23.4375,-27.83203125,-16.11328125,0.0,0
1586278972.8758664,180,1,-21.97265625,-41.015625,-29.296875,-13.18359375,0.0,0
1586278972.8797727,180,1,-23.4375,-24.4140625,-15.625,-28.3203125,0.0,0
1586278972.883679,180,1,-18.5546875,0.48828125,-27.34375,-36.1328125,0.0,0
1586278972.8875852,180,1,-21.97265625,-14.6484375,-36.1328125,-31.25,0.0,0
1586278972.8914914,180,1,-20.5078125,-39.0625,-28.3203125,-21.484375,0.0,0
1586278972.8953977,180,1,-19.53125,-18.5546875,-35.64453125,-9.765625,0.0,0
1586278972.899304,180,1,-15.625,-14.16015625,-27.34375,-11.23046875,0.0,0
1586278972.9032102,180,1,-20.5078125,-35.15625,-40.52734375,-24.4140625,0.0,0
1586278972.9071164,180,1,-30.76171875,-36.1328125,-59.5703125,-25.87890625,0.0,0
1586278972.9110227,180,1,-21.97265625,-29.296875,-56.15234375,-11.71875,0.0,0
1586278972.914929,180,1,-17.578125,-38.0859375,-49.31640625,-14.16015625,0.0,0
1586278972.9188352,180,1,-20.5078125,-45.41015625,-38.57421875,-19.04296875,0.0,0
1586278972.9227414,180,1,-19.53125,-20.01953125,-39.55078125,-19.04296875,0.0,0
1586278972.9266477,180,1,-15.625,-18.5546875,-30.2734375,-24.90234375,0.0,0
1586278972.930554,180,1,-10.25390625,-30.2734375,-16.11328125,-12.20703125,0.0,0
1586278972.9344602,180,1,-5.859375,-12.20703125,1.46484375,4.39453125,0.0,0
1586278972.9383664,180,1,-15.13671875,-15.13671875,-24.4140625,-14.16015625,0.0,0
1586278972.9422727,180,1,-26.85546875,-27.83203125,-52.24609375,-31.25,0.0,0
1586278972.946179,180,1,-28.3203125,-26.85546875,-39.55078125,-27.83203125,0.0,0
1586278972.9500852,180,1,-29.78515625,-18.5546875,-43.9453125,-22.4609375,0.0,0
1586278972.9539914,180,1,-26.85546875,-32.71484375,-47.8515625,-8.30078125,0.0,0
1586278972.9578977,180,1,-36.1328125,-55.17578125,-42.96875,-16.11328125,0.0,0
1586278972.961804,180,1,-41.9921875,-48.33984375,-31.73828125,-36.1328125,0.0,0
1586278972.9657102,180,1,-46.38671875,-42.48046875,-32.71484375,-50.29296875,0.0,0
1586278972.9696164,180,1,-42.96875,-30.76171875,-38.0859375,-41.9921875,0.0,0
1586278972.9735227,180,1,-26.85546875,-27.34375,-38.0859375,-6.34765625,0.0,0
1586278972.977429,180,1,-22.4609375,-49.31640625,-34.66796875,-6.8359375,0.0,0
1586278972.9813352,180,1,-25.87890625,-42.48046875,-32.2265625,-34.1796875,0.0,0
1586278972.9852414,180,1,-27.83203125,-37.109375,-52.734375,-35.15625,0.0,0
1586278972.9891477,180,1,-19.53125,-34.66796875,-84.47265625,-23.92578125,0.0,0
1586278972.993054,180,1,-12.6953125,-12.6953125,-35.64453125,-15.625,0.0,0
1586278972.9969602,180,1,-15.13671875,-18.06640625,-4.8828125,-3.90625,0.0,0
1586278973.0008664,180,1,-21.484375,-30.2734375,-28.80859375,-17.08984375,0.0,0
1586278973.0047727,180,1,-25.390625,-16.11328125,-38.57421875,-38.57421875,0.0,0
1586278973.008679,180,1,-18.06640625,-22.4609375,-33.203125,-27.83203125,0.0,0
1586278973.0125852,180,1,-10.25390625,-38.0859375,-22.4609375,-6.8359375,0.0,0
1586278973.0164914,180,1,-13.671875,-31.25,-20.99609375,-8.7890625,0.0,0
1586278973.0203977,180,1,-22.4609375,-44.921875,-46.875,-31.25,0.0,0
1586278973.024304,180,1,-19.53125,-41.015625,-34.66796875,-33.69140625,0.0,0
1586278973.0282102,180,1,-13.18359375,-32.71484375,-31.25,-20.01953125,0.0,0
1586278973.0321164,180,1,-14.16015625,-22.4609375,-65.91796875,-0.48828125,0.0,0
1586278973.0360227,180,1,-18.06640625,0.0,-50.78125,3.90625,0.0,0
1586278973.039929,180,1,-24.90234375,-12.20703125,-41.015625,-12.6953125,0.0,0
1586278973.0438352,180,1,-23.92578125,-21.97265625,-37.59765625,-20.5078125,0.0,0
1586278973.0477414,180,1,-23.92578125,-23.92578125,-30.76171875,-29.78515625,0.0,0
1586278973.0516477,180,1,-25.390625,-28.3203125,-40.52734375,-23.92578125,0.0,0
1586278973.055554,180,1,-25.87890625,-28.3203125,-28.3203125,-7.8125,0.0,0
1586278973.0594602,180,1,-29.78515625,-35.15625,-24.4140625,-10.25390625,0.0,0
1586278973.0633664,180,1,-33.69140625,-30.2734375,-35.64453125,-20.5078125,0.0,0
1586278973.0672727,180,1,-29.296875,-31.73828125,-40.52734375,-15.625,0.0,0
1586278973.071179,180,1,-20.01953125,-37.109375,-45.8984375,4.8828125,0.0,0
1586278973.0750852,180,1,-21.97265625,-19.53125,-38.0859375,1.46484375,0.0,0
1586278973.0789914,180,1,-30.76171875,-26.3671875,-15.13671875,-18.5546875,0.0,0
1586278973.0828977,180,1,-41.50390625,-30.2734375,-25.390625,-32.71484375,0.0,0
1586278973.086804,180,1,-46.38671875,-24.90234375,-43.9453125,-35.64453125,0.0,0
1586278973.0907102,180,1,-35.15625,-32.2265625,-29.78515625,-20.5078125,0.0,0
1586278973.0946164,180,1,-19.04296875,-23.92578125,-32.2265625,-8.30078125,0.0,0
1586278973.0985227,180,1,-19.04296875,-17.578125,-52.24609375,-23.92578125,0.0,0
1586278973.102429,180,1,-27.83203125,-19.53125,-48.33984375,-41.50390625,0.0,0
1586278973.1063352,180,1,-24.90234375,-9.765625,-43.9453125,-35.64453125,0.0,0
1586278973.1102414,180,1,-11.23046875,-17.08984375,-37.109375,-16.11328125,0.0,0
1586278973.1141477,180,1,2.44140625,-12.20703125,-44.43359375,0.9765625,0.0,0
1586278973.118054,180,1,-8.7890625,-22.4609375,-48.33984375,-14.6484375,0.0,0
1586278973.1219602,180,1,-20.5078125,-51.26953125,-43.9453125,-42.96875,0.0,0
1586278973.1258664,180,1,-18.5546875,-45.8984375,-32.2265625,-48.828125,0.0,0
1586278973.1297727,180,1,-16.6015625,-35.15625,-29.78515625,-29.296875,0.0,0
1586278973.133679,180,1,-14.16015625,-20.01953125,-38.57421875,-13.18359375,0.0,0
1586278973.1375852,180,1,-13.671875,-16.11328125,-50.78125,-18.06640625,0.0,0
1586278973.1414914,180,1,-21.97265625,-21.484375,-41.50390625,-37.109375,0.0,0
1586278973.1453977,180,1,-21.97265625,-10.7421875,-43.45703125,-43.9453125,0.0,0
1586278973.149304,180,1,-20.5078125,-7.8125,-52.734375,-29.78515625,0.0,0
1586278973.1532102,180,1,-33.69140625,-24.4140625,-63.96484375,-24.90234375,0.0,0
1586278973.1571164,180,1,-32.2265625,-31.25,-56.15234375,-18.5546875,0.0,0
1586278973.1610227,180,1,-28.80859375,-29.296875,-45.8984375,-17.578125,0.0,0
1586278973.164929,180,1,-28.3203125,-25.87890625,-47.36328125,-35.15625,0.0,0
1586278973.1688352,180,1,-26.3671875,-35.15625,-19.53125,-26.3671875,0.0,0
1586278973.1727414,180,1,-25.87890625,-42.96875,-20.99609375,-15.13671875,0.0,0
1586278973.1766477,180,1,-28.80859375,-33.69140625,-45.41015625,-20.5078125,0.0,0
1586278973.180554,180,1,-23.92578125,-34.66796875,-50.29296875,-25.87890625,0.0,0
1586278973.1844602,180,1,-18.06640625,-21.97265625,-31.73828125,-27.34375,0.0,0
1586278973.1883664,180,1,-24.90234375,-15.13671875,-33.69140625,-16.6015625,0.0,0
1586278973.1922727,180,1,-24.90234375,-30.2734375,-59.08203125,-5.37109375,0.0,0
1586278973.196179,180,1,-22.4609375,-52.734375,-35.64453125,-7.32421875,0.0,0
1586278973.2000852,180,1,-27.34375,-50.29296875,-17.578125,-17.08984375,0.0,0
1586278973.2039914,180,1,-28.80859375,-29.296875,-5.37109375,-17.578125,0.0,0
1586278973.2078977,180,1,-36.62109375,-25.390625,-22.94921875,-17.578125,0.0,0
1586278973.211804,180,1,-39.0625,-32.2265625,-42.96875,-16.11328125,0.0,0
1586278973.2157102,180,1,-34.66796875,-25.390625,-30.76171875,-11.23046875,0.0,0
1586278973.2196164,180,1,-34.66796875,-33.69140625,-45.8984375,-21.484375,0.0,0
1586278973.2235227,180,1,-37.109375,-53.7109375,-52.734375,-35.15625,0.0,0
1586278973.227429,180,1,-28.3203125,-39.0625,-52.24609375,-28.3203125,0.0,0
1586278973.2313352,180,1,-12.6953125,-19.04296875,-61.5234375,-17.578125,0.0,0
1586278973.2352414,180,1,-7.8125,-29.78515625,-55.6640625,-13.671875,0.0,0
1586278973.2391477,180,1,-20.5078125,-47.36328125,-41.015625,-19.53125,0.0,0
1586278973.243054,180,1,-20.01953125,-35.64453125,-38.57421875,-29.296875,0.0,0
1586278973.2469602,180,1,-4.39453125,-12.20703125,-33.203125,-21.97265625,0.0,0
1586278973.2508664,180,1,-7.32421875,-25.87890625,-24.4140625,-12.20703125,0.0,0
1586278973.2547727,180,1,-16.6015625,-48.33984375,-23.4375,-10.7421875,0.0,0
1586278973.258679,180,1,-20.01953125,-33.203125,-57.6171875,-14.6484375,0.0,0
1586278973.2625852,180,1,-25.87890625,-21.97265625,-69.82421875,-30.2734375,0.0,0
1586278973.2664914,180,1,-22.4609375,-34.66796875,-37.109375,-29.296875,0.0,0
1586278973.2703977,180,1,-19.04296875,-41.50390625,-36.1328125,-19.53125,0.0,0
1586278973.274304,180,1,-24.4140625,-27.34375,-48.828125,-19.04296875,0.0,0
1586278973.2782102,180,1,-29.296875,-20.99609375,-54.19921875,-24.90234375,0.0,0
1586278973.2821164,180,1,-32.2265625,-27.34375,-21.97265625,-27.34375,0.0,0
1586278973.2860227,180,1,-30.76171875,-31.73828125,-5.859375,-24.90234375,0.0,0
1586278973.289929,180,1,-26.85546875,-37.59765625,-13.18359375,-20.5078125,0.0,0
1586278973.2938352,180,1,-24.90234375,-38.0859375,5.859375,-12.20703125,0.0,0
1586278973.2977414,180,1,-30.2734375,-36.62109375,3.90625,-13.671875,0.0,0
1586278973.3016477,180,1,-29.296875,-38.57421875,-36.1328125,-25.390625,0.0,0
1586278973.305554,180,1,-29.296875,-20.99609375,-46.38671875,-33.203125,0.0,0
1586278973.3094602,180,1,-29.296875,-16.11328125,-34.1796875,-19.04296875,0.0,0
1586278973.3133664,180,1,-21.97265625,-39.55078125,-38.57421875,0.48828125,0.0,0
1586278973.3172727,180,1,-26.3671875,-56.15234375,-37.59765625,-1.46484375,0.0,0
1586278973.321179,180,1,-36.62109375,-42.48046875,-35.15625,-21.97265625,0.0,0
1586278973.3250852,180,1,-33.203125,-9.27734375,-31.73828125,-32.2265625,0.0,0
1586278973.3289914,180,1,-25.87890625,1.46484375,-24.90234375,-13.671875,0.0,0
1586278973.3328977,180,1,-23.4375,-7.8125,-1.953125,1.46484375,0.0,0
1586278973.336804,180,1,-27.83203125,-27.34375,4.8828125,-8.30078125,0.0,0
1586278973.3407102,180,1,-20.01953125,-41.9921875,-22.4609375,-20.5078125,0.0,0
1586278973.3446164,180,1,-12.20703125,-43.9453125,-33.203125,-26.85546875,0.0,0
1586278973.3485227,180,1,-20.01953125,-48.33984375,-21.484375,-15.13671875,0.0,0
1586278973.352429,180,1,-13.18359375,-37.59765625,-43.9453125,3.41796875,0.0,0
1586278973.3563352,180,1,-12.6953125,-33.69140625,-68.359375,-7.8125,0.0,0
1586278973.3602414,180,1,-18.5546875,-27.83203125,-42.96875,-35.15625,0.0,0
1586278973.3641477,180,1,-18.06640625,-12.6953125,-23.92578125,-39.0625,0.0,0
1586278973.368054,180,1,-20.01953125,-12.6953125,-26.3671875,-30.2734375,0.0,0
1586278973.3719602,180,1,-22.94921875,-21.484375,-20.5078125,-23.4375,0.0,0
1586278973.3758664,180,1,-19.53125,-25.390625,-18.06640625,-14.16015625,0.0,0
1586278973.3797727,180,1,-25.390625,-37.59765625,-32.71484375,-22.4609375,0.0,0
1586278973.383679,180,1,-40.0390625,-43.9453125,-32.2265625,-38.57421875,0.0,0
1586278973.3875852,180,1,-36.1328125,-37.59765625,-36.1328125,-30.76171875,0.0,0
1586278973.3914914,180,1,-18.06640625,-39.55078125,-50.29296875,-13.18359375,0.0,0
1586278973.3953977,180,1,-17.578125,-41.015625,-50.78125,-12.20703125,0.0,0
1586278973.399304,180,1,-24.4140625,-38.0859375,-62.5,-18.06640625,0.0,0
1586278973.4032102,180,1,-25.87890625,-55.17578125,-50.29296875,-28.3203125,0.0,0
1586278973.4071164,180,1,-24.90234375,-44.921875,-31.25,-33.203125,0.0,0
1586278973.4110227,180,1,-20.5078125,-17.578125,-31.73828125,-25.87890625,0.0,0
1586278973.414929,180,1,-20.01953125,-16.11328125,-24.4140625,-12.6953125,0.0,0
1586278973.4188352,180,1,-34.1796875,-39.0625,-24.90234375,-21.484375,0.0,0
1586278973.4227414,180,1,-47.36328125,-52.24609375,-29.296875,-37.109375,0.0,0
1586278973.4266477,180,1,-49.8046875,-40.52734375,-38.57421875,-37.59765625,0.0,0
1586278973.430554,180,1,-42.96875,-23.92578125,-43.9453125,-26.3671875,0.0,0
1586278973.4344602,180,1,-35.15625,-23.4375,-35.15625,-13.18359375,0.0,0
1586278973.4383664,180,1,-32.71484375,-32.71484375,-50.29296875,-24.4140625,0.0,0
1586278973.4422727,180,1,-37.59765625,-47.36328125,-55.6640625,-47.36328125,0.0,0
1586278973.446179,180,1,-34.66796875,-43.45703125,-19.04296875,-47.36328125,0.0,0
1586278973.4500852,180,1,-21.484375,-32.71484375,-8.30078125,-19.04296875,0.0,0
1586278973.4539914,180,1,-19.53125,-37.109375,-10.25390625,-6.8359375,0.0,0
1586278973.4578977,180,1,-21.97265625,-20.01953125,-23.4375,-21.484375,0.0,0
1586278973.461804,180,1,-25.390625,-4.39453125,-44.43359375,-32.71484375,0.0,0
1586278973.4657102,180,1,-20.99609375,-17.578125,-32.71484375,-35.64453125,0.0,0
1586278973.4696164,180,1,-16.6015625,-37.59765625,-43.45703125,-32.71484375,0.0,0
1586278973.4735227,180,1,-5.37109375,-35.15625,-50.78125,-13.18359375,0.0,0
1586278973.477429,180,1,1.953125,-27.83203125,-45.41015625,-5.859375,0.0,0
1586278973.4813352,180,1,-10.7421875,-42.96875,-25.390625,-18.06640625,0.0,0
1586278973.4852414,180,1,-20.01953125,-50.29296875,6.34765625,-25.87890625,0.0,0
1586278973.4891477,180,1,-17.08984375,-34.1796875,-20.99609375,-14.16015625,0.0,0
1586278973.493054,180,1,-7.32421875,-10.25390625,-36.62109375,4.8828125,0.0,0
1586278973.4969602,180,1,-9.27734375,2.44140625,-11.23046875,0.9765625,0.0,0
1586278973.5008664,180,1,-13.671875,-2.44140625,-15.625,-29.78515625,0.0,0
1586278973.5047727,180,1,-19.04296875,-20.01953125,-28.80859375,-37.109375,0.0,0
1586278973.508679,180,1,-23.92578125,-27.83203125,-25.87890625,-22.94921875,0.0,0
1586278973.5125852,180,1,-25.87890625,-25.87890625,-29.296875,-5.859375,0.0,0
1586278973.5164914,180,1,-30.76171875,-32.71484375,-61.03515625,-7.32421875,0.0,0
1586278973.5203977,180,1,-37.59765625,-47.36328125,-53.7109375,-31.73828125,0.0,0
1586278973.524304,180,1,-32.71484375,-46.38671875,-28.3203125,-33.203125,0.0,0
1586278973.5282102,180,1,-29.78515625,-28.80859375,-22.4609375,-27.34375,0.0,0
1586278973.5321164,180,1,-28.3203125,-38.0859375,-10.25390625,-16.11328125,0.0,0
1586278973.5360227,180,1,-23.4375,-47.36328125,-20.99609375,-5.859375,0.0,0
1586278973.539929,180,1,-31.73828125,-30.2734375,-27.83203125,-23.4375,0.0,0
1586278973.5438352,180,1,-37.109375,-20.5078125,-36.62109375,-28.80859375,0.0,0
1586278973.5477414,180,1,-34.1796875,-19.04296875,-56.640625,-23.4375,0.0,0
1586278973.5516477,180,1,-29.78515625,-31.25,-54.19921875,-18.5546875,0.0,0
1586278973.555554,180,1,-32.2265625,-46.38671875,-34.66796875,-18.06640625,0.0,0
1586278973.5594602,180,1,-41.015625,-45.8984375,-39.55078125,-31.73828125,0.0,0
1586278973.5633664,180,1,-38.57421875,-37.109375,-34.1796875,-48.828125,0.0,0
1586278973.5672727,180,1,-32.2265625,-27.34375,-8.7890625,-39.55078125,0.0,0
1586278973.571179,180,1,-31.25,-30.76171875,-24.4140625,-17.578125,0.0,0
1586278973.5750852,180,1,-24.4140625,-18.5546875,-28.3203125,-13.671875,0.0,0
1586278973.5789914,180,1,-20.5078125,-0.9765625,-27.34375,-21.97265625,0.0,0
1586278973.5828977,180,1,-24.90234375,-16.11328125,-45.8984375,-34.66796875,0.0,0
1586278973.586804,180,1,-24.4140625,-34.1796875,-41.50390625,-30.2734375,0.0,0
1586278973.5907102,180,1,-27.34375,-26.85546875,-26.85546875,-10.25390625,0.0,0
1586278973.5946164,180,1,-28.80859375,-30.2734375,-37.109375,-2.9296875,0.0,0
1586278973.5985227,180,1,-28.80859375,-48.33984375,-66.40625,-20.5078125,0.0,0
1586278973.602429,180,1,-38.0859375,-37.109375,-55.17578125,-42.48046875,0.0,0
1586278973.6063352,180,1,-41.015625,-25.390625,-32.71484375,-48.828125,0.0,0
1586278973.6102414,180,1,-26.85546875,-29.78515625,-17.08984375,-26.85546875,0.0,0
1586278973.6141477,180,1,-23.4375,-32.2265625,-45.41015625,-10.7421875,0.0,0
1586278973.618054,180,1,-28.80859375,-31.25,-73.2421875,-26.3671875,0.0,0
1586278973.6219602,180,1,-29.78515625,-20.5078125,-46.875,-42.96875,0.0,0
1586278973.6258664,180,1,-25.390625,-20.5078125,-31.25,-37.59765625,0.0,0
1586278973.6297727,180,1,-19.04296875,-33.203125,-32.2265625,-12.20703125,0.0,0
1586278973.633679,180,1,-22.4609375,-34.1796875,-21.97265625,0.9765625,0.0,0
1586278973.6375852,180,1,-33.69140625,-24.4140625,-27.83203125,-11.23046875,0.0,0
1586278973.6414914,180,1,-34.66796875,-24.90234375,-49.8046875,-27.83203125,0.0,0
1586278973.6453977,180,1,-27.34375,-35.64453125,-46.38671875,-30.2734375,0.0,0
1586278973.649304,180,1,-31.73828125,-37.109375,-39.0625,-21.97265625,0.0,0
1586278973.6532102,180,1,-34.66796875,-36.62109375,-22.94921875,-24.90234375,0.0,0
1586278973.6571164,180,1,-38.57421875,-43.45703125,-26.85546875,-28.80859375,0.0,0
1586278973.6610227,180,1,-38.57421875,-42.96875,-37.59765625,-27.34375,0.0,0
1586278973.664929,180,1,-41.015625,-24.90234375,-30.2734375,-30.2734375,0.0,0
1586278973.6688352,180,1,-40.52734375,-19.53125,-29.296875,-18.5546875,0.0,0
1586278973.6727414,180,1,-33.69140625,-22.4609375,-19.04296875,0.0,0.0,0
1586278973.6766477,180,1,-31.73828125,-30.76171875,-5.859375,-4.8828125,0.0,0
1586278973.680554,180,1,-27.83203125,-26.85546875,-7.32421875,-20.99609375,0.0,0
1586278973.6844602,180,1,-24.4140625,-21.97265625,-19.53125,-28.3203125,0.0,0
1586278973.6883664,180,1,-24.4140625,-40.0390625,-34.66796875,-21.97265625,0.0,0
1586278973.6922727,180,1,-21.484375,-47.8515625,-41.9921875,-8.7890625,0.0,0
1586278973.696179,180,1,-24.4140625,-52.734375,-52.734375,-20.5078125,0.0,0
1586278973.7000852,180,1,-33.69140625,-52.24609375,-71.2890625,-42.48046875,0.0,0
1586278973.7039914,180,1,-32.2265625,-31.25,-60.05859375,-37.59765625,0.0,0
1586278973.7078977,180,1,-26.3671875,-8.7890625,-36.1328125,-28.80859375,0.0,0
1586278973.711804,180,1,-17.578125,11.71875,-7.8125,-20.99609375,0.0,0
1586278973.7157102,180,1,-10.25390625,-8.7890625,11.23046875,-4.39453125,0.0,0
1586278973.7196164,180,1,-15.625,-35.15625,0.0,-13.18359375,0.0,0
1586278973.7235227,180,1,-27.83203125,-37.109375,7.32421875,-30.2734375,0.0,0
1586278973.727429,180,1,-31.73828125,-41.50390625,-18.06640625,-23.92578125,0.0,0
1586278973.7313352,180,1,-21.484375,-36.1328125,-48.828125,-9.765625,0.0,0
1586278973.7352414,180,1,-15.625,-38.57421875,-37.109375,-14.16015625,0.0,0
1586278973.7391477,180,1,-26.3671875,-40.52734375,-40.52734375,-35.15625,0.0,0
1586278973.743054,180,1,-33.69140625,-26.85546875,-36.62109375,-41.015625,0.0,0
1586278973.7469602,180,1,-30.2734375,-18.5546875,-38.57421875,-29.78515625,0.0,0
1586278973.7508664,180,1,-23.92578125,-19.04296875,-62.98828125,-19.53125,0.0,0
1586278973.7547727,180,1,-23.92578125,-20.99609375,-41.50390625,-17.08984375,0.0,0
1586278973.758679,180,1,-27.34375,-30.2734375,-8.30078125,-17.578125,0.0,0
1586278973.7625852,180,1,-29.78515625,-30.76171875,-12.6953125,-26.3671875,0.0,0
1586278973.7664914,180,1,-31.25,-33.203125,-25.87890625,-29.78515625,0.0,0
1586278973.7703977,180,1,-35.64453125,-41.015625,-36.62109375,-15.13671875,0.0,0
1586278973.774304,180,1,-38.57421875,-30.2734375,-47.36328125,-10.25390625,0.0,0
1586278973.7782102,180,1,-42.48046875,-19.53125,-45.8984375,-27.34375,0.0,0
1586278973.7821164,180,1,-33.69140625,-10.7421875,-47.36328125,-41.015625,0.0,0
1586278973.7860227,180,1,-24.4140625,-9.27734375,-42.96875,-33.69140625,0.0,0
1586278973.789929,180,1,-27.34375,-22.4609375,-41.015625,-24.4140625,0.0,0
1586278973.7938352,180,1,-15.13671875,-44.921875,-58.10546875,-13.18359375,0.0,0
1586278973.7977414,180,1,-8.7890625,-41.9921875,-41.50390625,-13.671875,0.0,0
1586278973.8016477,180,1,-21.97265625,-26.3671875,-11.71875,-33.69140625,0.0,0
1586278973.805554,180,1,-23.92578125,-29.296875,-7.32421875,-45.8984375,0.0,0
1586278973.8094602,180,1,-13.18359375,-20.99609375,-30.76171875,-26.3671875,0.0,0
1586278973.8133664,180,1,-7.32421875,1.46484375,-57.6171875,-5.859375,0.0,0
1586278973.8172727,180,1,-20.01953125,-1.46484375,-37.59765625,-9.27734375,0.0,0
1586278973.821179,180,1,-29.78515625,-34.66796875,-23.4375,-22.4609375,0.0,0
1586278973.8250852,180,1,-33.69140625,-46.875,-27.83203125,-24.4140625,0.0,0
1586278973.8289914,180,1,-29.78515625,-41.50390625,-27.83203125,-9.765625,0.0,0
1586278973.8328977,180,1,-16.6015625,-29.78515625,-40.0390625,3.41796875,0.0,0
1586278973.836804,180,1,-20.5078125,-24.90234375,-61.5234375,1.953125,0.0,0
1586278973.8407102,180,1,-22.4609375,-35.64453125,-63.4765625,-6.34765625,0.0,0
1586278973.8446164,180,1,-13.18359375,-45.41015625,-26.85546875,-6.8359375,0.0,0
1586278973.8485227,180,1,-12.20703125,-40.52734375,11.23046875,-1.46484375,0.0,0
1586278973.852429,180,1,-18.06640625,-21.484375,2.9296875,12.6953125,0.0,0
1586278973.8563352,180,1,-28.80859375,-11.23046875,-34.66796875,8.7890625,0.0,0
1586278973.8602414,180,1,-38.0859375,-20.01953125,-38.0859375,-14.6484375,0.0,0
1586278973.8641477,180,1,-39.55078125,-32.2265625,-16.11328125,-25.390625,0.0,0
1586278973.868054,180,1,-31.25,-23.92578125,-19.04296875,-9.765625,0.0,0
1586278973.8719602,180,1,-23.4375,-28.80859375,-37.59765625,7.8125,0.0,0
1586278973.8758664,180,1,-21.484375,-38.0859375,-39.0625,-3.41796875,0.0,0
1586278973.8797727,180,1,-26.3671875,-37.109375,-34.1796875,-19.53125,0.0,0
1586278973.883679,180,1,-29.296875,-38.0859375,-29.78515625,-22.94921875,0.0,0
1586278973.8875852,180,1,-27.34375,-36.1328125,-46.38671875,-15.13671875,0.0,0
1586278973.8914914,180,1,-22.4609375,-41.015625,-43.45703125,0.0,0.0,0
1586278973.8953977,180,1,-30.76171875,-46.875,-20.01953125,-0.48828125,0.0,0
1586278973.899304,180,1,-42.48046875,-54.6875,-19.53125,-21.484375,0.0,0
1586278973.9032102,180,1,-26.85546875,-42.96875,-25.87890625,-35.64453125,0.0,0
1586278973.9071164,180,1,-17.08984375,-11.23046875,-14.16015625,-30.2734375,0.0,0
1586278973.9110227,180,1,-14.16015625,-3.41796875,-21.97265625,-10.25390625,0.0,0
1586278973.914929,180,1,-15.13671875,-27.34375,-58.10546875,-5.859375,0.0,0
1586278973.9188352,180,1,-23.92578125,-45.41015625,-62.01171875,-14.6484375,0.0,0
1586278973.9227414,180,1,-28.3203125,-45.41015625,-42.48046875,-18.06640625,0.0,0
1586278973.9266477,180,1,-20.5078125,-38.57421875,-27.34375,-16.11328125,0.0,0
1586278973.930554,180,1,-21.484375,-34.66796875,-20.01953125,-13.18359375,0.0,0
1586278973.9344602,180,1,-31.25,-40.52734375,-22.4609375,-20.5078125,0.0,0
1586278973.9383664,180,1,-34.1796875,-50.78125,-33.203125,-32.2265625,0.0,0
1586278973.9422727,180,1,-27.83203125,-45.8984375,-26.3671875,-26.85546875,0.0,0
1586278973.946179,180,1,-25.390625,-29.78515625,-27.83203125,-18.06640625,0.0,0
1586278973.9500852,180,1,-28.80859375,-41.9921875,-43.9453125,-22.94921875,0.0,0
1586278973.9539914,180,1,-19.04296875,-41.015625,-45.8984375,-21.97265625,0.0,0
1586278973.9578977,180,1,-18.06640625,-20.01953125,-31.25,-32.71484375,0.0,0
1586278973.961804,180,1,-21.97265625,-7.8125,-25.87890625,-50.78125,0.0,0
1586278973.9657102,180,1,-20.5078125,-22.94921875,-40.0390625,-46.38671875,0.0,0
1586278973.9696164,180,1,-18.5546875,-41.015625,-58.59375,-24.90234375,0.0,0
1586278973.9735227,180,1,-7.32421875,-20.99609375,-44.921875,-10.25390625,0.0,0
1586278973.977429,180,1,-10.25390625,-11.71875,-13.671875,-18.5546875,0.0,0
1586278973.9813352,180,1,-25.87890625,-32.2265625,-15.13671875,-29.296875,0.0,0
1586278973.9852414,180,1,-22.94921875,-41.015625,-25.390625,-26.3671875,0.0,0
1586278973.9891477,180,1,-15.625,-37.109375,-47.36328125,-1.953125,0.0,0
1586278973.993054,180,1,-18.5546875,-19.53125,-17.578125,1.953125,0.0,0
1586278973.9969602,180,1,-25.87890625,-17.08984375,-12.20703125,-13.671875,0.0,0
1586278974.0008664,180,1,-24.90234375,-37.59765625,-38.0859375,-26.3671875,0.0,0
1586278974.0047727,180,1,-17.578125,-32.71484375,-34.1796875,-32.71484375,0.0,0
1586278974.008679,180,1,-9.27734375,-19.04296875,-55.17578125,-20.01953125,0.0,0
1586278974.0125852,180,1,-9.765625,-21.484375,-47.36328125,-9.765625,0.0,0
1586278974.0164914,180,1,-13.18359375,-20.01953125,-19.53125,-9.27734375,0.0,0
1586278974.0203977,180,1,-20.5078125,-12.6953125,-20.5078125,-28.80859375,0.0,0
1586278974.024304,180,1,-33.203125,-17.08984375,-31.25,-44.921875,0.0,0
1586278974.0282102,180,1,-27.34375,-22.4609375,-42.48046875,-34.1796875,0.0,0
1586278974.0321164,180,1,-38.0859375,-39.0625,-40.0390625,-20.99609375,0.0,0
1586278974.0360227,180,1,-47.8515625,-48.828125,-44.43359375,-20.01953125,0.0,0
1586278974.039929,180,1,-32.71484375,-32.71484375,-16.6015625,-33.69140625,0.0,0
1586278974.0438352,180,1,-31.73828125,-21.484375,-6.8359375,-37.59765625,0.0,0
1586278974.0477414,180,1,-28.3203125,-13.18359375,-39.0625,-19.53125,0.0,0
1586278974.0516477,180,1,-20.99609375,-22.94921875,-47.8515625,-8.7890625,0.0,0
1586278974.055554,180,1,-18.5546875,-38.0859375,-45.8984375,-1.953125,0.0,0
1586278974.0594602,180,1,-13.18359375,-21.484375,-30.2734375,1.46484375,0.0,0
1586278974.0633664,180,1,-11.71875,-21.484375,-7.8125,-11.71875,0.0,0
1586278974.0672727,180,1,-19.53125,-40.52734375,-35.64453125,-9.765625,0.0,0
1586278974.071179,180,1,-26.85546875,-37.109375,-58.10546875,-8.7890625,0.0,0
1586278974.0750852,180,1,-22.4609375,-29.78515625,-29.296875,-8.7890625,0.0,0
1586278974.0789914,180,1,-24.90234375,-20.5078125,-6.8359375,-11.23046875,0.0,0
1586278974.0828977,180,1,-28.80859375,-2.44140625,-9.27734375,-26.3671875,0.0,0
1586278974.086804,180,1,-28.3203125,-3.41796875,-11.23046875,-32.71484375,0.0,0
1586278974.0907102,180,1,-23.92578125,-18.06640625,-25.390625,-27.34375,0.0,0
1586278974.0946164,180,1,-27.34375,-12.20703125,-43.45703125,-17.08984375,0.0,0
1586278974.0985227,180,1,-47.8515625,-26.85546875,-47.8515625,-30.2734375,0.0,0
1586278974.102429,180,1,-40.0390625,-32.71484375,-48.828125,-48.828125,0.0,0
1586278974.1063352,180,1,-15.625,-20.01953125,-31.25,-26.3671875,0.0,0
1586278974.1102414,180,1,-8.30078125,-36.1328125,-18.06640625,-7.32421875,0.0,0
1586278974.1141477,180,1,-8.7890625,-30.2734375,-21.97265625,-2.9296875,0.0,0
1586278974.118054,180,1,-22.94921875,-22.94921875,-47.36328125,-18.5546875,0.0,0
1586278974.1219602,180,1,-36.62109375,-46.875,-32.2265625,-27.83203125,0.0,0
1586278974.1258664,180,1,-31.73828125,-25.390625,-14.16015625,-21.484375,0.0,0
1586278974.1297727,180,1,-27.34375,1.953125,-16.11328125,-18.5546875,0.0,0
1586278974.133679,180,1,-28.3203125,-26.85546875,-25.390625,-9.27734375,0.0,0
1586278974.1375852,180,1,-25.390625,-30.2734375,-26.85546875,-10.25390625,0.0,0
1586278974.1414914,180,1,-35.15625,-14.6484375,-23.92578125,-31.73828125,0.0,0
1586278974.1453977,180,1,-39.0625,-21.97265625,-31.25,-38.0859375,0.0,0
1586278974.149304,180,1,-14.16015625,-19.04296875,-41.9921875,-26.3671875,0.0,0
1586278974.1532102,180,1,-6.8359375,-9.27734375,-30.2734375,-18.06640625,0.0,0
1586278974.1571164,180,1,-15.13671875,-26.85546875,-39.0625,-21.97265625,0.0,0
1586278974.1610227,180,1,-18.5546875,-47.36328125,-57.6171875,-31.25,0.0,0
1586278974.164929,180,1,-11.23046875,-39.0625,-31.73828125,-23.92578125,0.0,0
1586278974.1688352,180,1,-12.20703125,-31.25,-22.94921875,-13.18359375,0.0,0
1586278974.1727414,180,1,-20.5078125,-52.734375,-32.2265625,-13.671875,0.0,0
1586278974.1766477,180,1,-24.4140625,-43.9453125,-41.015625,-22.4609375,0.0,0
1586278974.180554,180,1,-26.85546875,-24.4140625,-32.2265625,-38.0859375,0.0,0
1586278974.1844602,180,1,-50.78125,-44.921875,-33.203125,-40.52734375,0.0,0
1586278974.1883664,180,1,-55.6640625,-36.1328125,-45.8984375,-39.55078125,0.0,0
1586278974.1922727,180,1,-28.80859375,-20.99609375,-12.6953125,-29.78515625,0.0,0
1586278974.196179,180,1,-33.203125,-29.296875,-19.04296875,-17.578125,0.0,0
1586278974.2000852,180,1,-43.9453125,-35.15625,-51.7578125,-35.15625,0.0,0
1586278974.2039914,180,1,-43.9453125,-38.57421875,-35.64453125,-43.9453125,0.0,0
1586278974.2078977,180,1,-34.66796875,-38.0859375,-23.92578125,-28.80859375,0.0,0
1586278974.211804,180,1,-22.94921875,-28.3203125,-23.4375,-6.8359375,0.0,0
1586278974.2157102,180,1,-8.30078125,-34.66796875,-32.71484375,-10.25390625,0.0,0
1586278974.2196164,180,1,-16.6015625,-50.78125,-46.38671875,-30.76171875,0.0,0
1586278974.2235227,180,1,-34.66796875,-27.34375,-39.0625,-31.25,0.0,0
1586278974.227429,180,1,-19.53125,-21.97265625,-42.48046875,-19.53125,0.0,0
1586278974.2313352,180,1,-28.80859375,-20.01953125,-41.015625,-6.34765625,0.0,0
1586278974.2352414,180,1,-49.8046875,-19.53125,-7.32421875,-10.7421875,0.0,0
1586278974.2391477,180,1,-32.71484375,-40.0390625,-10.7421875,-25.390625,0.0,0
1586278974.243054,180,1,-24.4140625,-46.875,-35.15625,-25.390625,0.0,0
1586278974.2469602,180,1,-20.5078125,-37.109375,-21.484375,-13.671875,0.0,0
1586278974.2508664,180,1,-16.6015625,-30.76171875,-24.90234375,-5.37109375,0.0,0
1586278974.2547727,180,1,-18.06640625,-29.296875,-40.0390625,-5.37109375,0.0,0
1586278974.258679,180,1,-18.06640625,-13.671875,-18.5546875,-11.71875,0.0,0
1586278974.2625852,180,1,-30.2734375,-21.484375,-26.3671875,-29.78515625,0.0,0
1586278974.2664914,180,1,-30.76171875,-41.015625,-54.6875,-34.1796875,0.0,0
1586278974.2703977,180,1,-14.16015625,-42.96875,-61.03515625,-17.08984375,0.0,0
1586278974.274304,180,1,-19.53125,-47.8515625,-29.296875,-5.37109375,0.0,0
1586278974.2782102,180,1,-23.92578125,-33.69140625,-12.6953125,-8.30078125,0.0,0
1586278974.2821164,180,1,-9.27734375,-21.484375,-32.2265625,-8.7890625,0.0,0
1586278974.2860227,180,1,-12.20703125,-18.5546875,-36.62109375,-8.7890625,0.0,0
1586278974.289929,180,1,-15.13671875,-8.30078125,-23.92578125,-5.859375,0.0,0
1586278974.2938352,180,1,-15.13671875,-16.11328125,-46.875,-6.34765625,0.0,0
1586278974.2977414,180,1,-19.04296875,-27.83203125,-44.43359375,-21.97265625,0.0,0
1586278974.3016477,180,1,-45.8984375,-29.296875,-31.25,-43.9453125,0.0,0
1586278974.305554,180,1,-42.48046875,-35.64453125,-67.3828125,-34.66796875,0.0,0
1586278974.3094602,180,1,-19.04296875,-31.73828125,-61.03515625,-18.5546875,0.0,0
1586278974.3133664,180,1,-16.11328125,-46.875,-20.01953125,-19.53125,0.0,0
1586278974.3172727,180,1,-14.16015625,-53.22265625,-7.32421875,-5.37109375,0.0,0
1586278974.321179,180,1,-28.3203125,-24.90234375,-7.32421875,-7.32421875,0.0,0
1586278974.3250852,180,1,-24.90234375,-14.16015625,-20.99609375,-19.04296875,0.0,0
1586278974.3289914,180,1,-13.671875,-17.08984375,-44.921875,-21.97265625,0.0,0
1586278974.3328977,180,1,-18.5546875,-16.6015625,-46.38671875,-19.04296875,0.0,0
1586278974.336804,180,1,-32.2265625,-25.390625,-26.3671875,-24.90234375,0.0,0
1586278974.3407102,180,1,-40.0390625,-38.57421875,-37.109375,-40.0390625,0.0,0
1586278974.3446164,180,1,-40.52734375,-39.0625,-64.453125,-47.36328125,0.0,0
1586278974.3485227,180,1,-45.41015625,-42.48046875,-41.9921875,-37.59765625,0.0,0
1586278974.352429,180,1,-24.90234375,-48.33984375,-17.578125,-26.3671875,0.0,0
1586278974.3563352,180,1,-16.11328125,-32.71484375,0.0,-20.01953125,0.0,0
1586278974.3602414,180,1,-28.3203125,-23.4375,5.37109375,-23.4375,0.0,0
1586278974.3641477,180,1,-26.85546875,-27.83203125,-34.1796875,-20.01953125,0.0,0
