timestamps,words,terms,TP9,AF7,AF8,TP10,Right AUX,Marker
1586278829.727429,119,1,-33.69140625,-39.0625,-41.9921875,-27.83203125,0.0,0
1586278829.7313352,119,1,-32.2265625,-43.45703125,-30.76171875,-24.4140625,0.0,0
1586278829.7352414,119,1,-22.94921875,-17.08984375,-39.55078125,-15.625,0.0,0
1586278829.7391477,119,1,-15.13671875,-15.625,-13.671875,-13.18359375,0.0,0
1586278829.743054,119,1,-20.01953125,-32.2265625,15.13671875,-22.94921875,0.0,0
1586278829.7469602,119,1,-37.109375,-20.99609375,-11.23046875,-28.80859375,0.0,0
1586278829.7508664,119,1,-20.99609375,-10.25390625,-38.0859375,-23.4375,0.0,0
1586278829.7547727,119,1,-4.39453125,-16.6015625,-30.76171875,-10.7421875,0.0,0
1586278829.758679,119,1,-11.71875,-43.9453125,-30.2734375,-8.7890625,0.0,0
1586278829.7625852,119,1,-17.08984375,-38.57421875,-17.578125,-19.04296875,0.0,0
1586278829.7664914,119,1,-20.99609375,-13.671875,-13.671875,-26.85546875,0.0,0
1586278829.7703977,119,1,-20.01953125,-24.90234375,-38.57421875,-27.83203125,0.0,0
1586278829.774304,119,1,-22.4609375,-29.78515625,-42.96875,-29.296875,0.0,0
1586278829.7782102,119,1,-22.4609375,-15.13671875,-28.80859375,-16.6015625,0.0,0
1586278829.7821164,119,1,-25.390625,-21.97265625,-0.48828125,-23.92578125,0.0,0
1586278829.7860227,119,1,-27.83203125,-49.31640625,0.0,-36.1328125,0.0,0
1586278829.789929,119,1,-27.34375,-52.734375,-31.25,-29.78515625,0.0,0
1586278829.7938352,119,1,-30.2734375,-25.87890625,-53.22265625,-16.6015625,0.0,0
1586278829.7977414,119,1,-26.3671875,-15.13671875,-59.5703125,-14.6484375,0.0,0
1586278829.8016477,119,1,-17.578125,-35.64453125,-53.22265625,-29.296875,0.0,0
1586278829.805554,119,1,-21.97265625,-34.1796875,-64.453125,-32.71484375,0.0,0
1586278829.8094602,119,1,-28.3203125,-28.80859375,-22.4609375,-25.390625,0.0,0
1586278829.8133664,119,1,-22.4609375,-43.45703125,16.11328125,-12.20703125,0.0,0
1586278829.8172727,119,1,-22.4609375,-42.48046875,-35.15625,-8.30078125,0.0,0
1586278829.821179,119,1,-24.90234375,-14.6484375,-31.25,-18.06640625,0.0,0
1586278829.8250852,119,1,-33.203125,-9.765625,-4.39453125,-28.80859375,0.0,0
1586278829.8289914,119,1,-34.66796875,-34.1796875,-23.4375,-19.04296875,0.0,0
1586278829.8328977,119,1,-25.87890625,-37.109375,-37.109375,-3.41796875,0.0,0
1586278829.836804,119,1,-39.55078125,-37.109375,-26.85546875,-16.6015625,0.0,0
1586278829.8407102,119,1,-61.03515625,-46.875,-37.109375,-45.41015625,0.0,0
1586278829.8446164,119,1,-48.33984375,-55.6640625,-52.24609375,-63.4765625,0.0,0
1586278829.8485227,119,1,-45.41015625,-45.8984375,-26.85546875,-65.4296875,0.0,0
1586278829.852429,119,1,-54.6875,-36.1328125,-29.296875,-55.6640625,0.0,0
1586278829.8563352,119,1,-43.9453125,-39.0625,-33.203125,-36.62109375,0.0,0
1586278829.8602414,119,1,-49.31640625,-38.57421875,22.4609375,-36.62109375,0.0,0
1586278829.8641477,119,1,-65.4296875,-33.203125,2.44140625,-66.89453125,0.0,0
1586278829.868054,119,1,-55.6640625,-28.3203125,-41.015625,-63.4765625,0.0,0
1586278829.8719602,119,1,-51.26953125,-33.69140625,-34.66796875,-49.31640625,0.0,0
1586278829.8758664,119,1,-59.08203125,-45.41015625,-31.25,-46.875,0.0,0
1586278829.8797727,119,1,-59.08203125,-56.640625,-20.99609375,-39.55078125,0.0,0
1586278829.883679,119,1,-66.89453125,-58.10546875,-28.3203125,-55.17578125,0.0,0
1586278829.8875852,119,1,-58.59375,-49.31640625,-37.109375,-48.828125,0.0,0
1586278829.8914914,119,1,-53.22265625,-37.59765625,-27.83203125,-33.203125,0.0,0
1586278829.8953977,119,1,-51.7578125,-36.1328125,-22.94921875,-25.390625,0.0,0
1586278829.899304,119,1,-45.8984375,-36.62109375,-33.203125,-18.06640625,0.0,0
1586278829.9032102,119,1,-54.6875,-21.484375,-19.53125,-31.25,0.0,0
1586278829.9071164,119,1,-53.22265625,-19.04296875,-5.859375,-41.015625,0.0,0
1586278829.9110227,119,1,-39.55078125,-44.43359375,-21.484375,-25.390625,0.0,0
1586278829.914929,119,1,-37.59765625,-59.08203125,-51.7578125,-12.20703125,0.0,0
1586278829.9188352,119,1,-40.0390625,-30.76171875,-34.66796875,-8.30078125,0.0,0
1586278829.9227414,119,1,-32.71484375,-16.6015625,-9.765625,-10.25390625,0.0,0
1586278829.9266477,119,1,-47.36328125,-36.1328125,-27.34375,-23.92578125,0.0,0
1586278829.930554,119,1,-52.734375,-40.52734375,-23.4375,-28.3203125,0.0,0
1586278829.9344602,119,1,-28.3203125,-35.15625,-10.7421875,-15.625,0.0,0
1586278829.9383664,119,1,-24.90234375,-46.875,-54.6875,-8.7890625,0.0,0
1586278829.9422727,119,1,-29.296875,-57.12890625,-57.6171875,-18.06640625,0.0,0
1586278829.946179,119,1,-36.62109375,-44.43359375,-8.7890625,-34.66796875,0.0,0
1586278829.9500852,119,1,-40.52734375,-31.25,-23.4375,-43.45703125,0.0,0
1586278829.9539914,119,1,-34.66796875,-43.9453125,-48.828125,-34.1796875,0.0,0
1586278829.9578977,119,1,-38.57421875,-34.1796875,-38.0859375,-22.4609375,0.0,0
1586278829.961804,119,1,-36.62109375,2.44140625,1.46484375,-18.5546875,0.0,0
1586278829.9657102,119,1,-26.85546875,-9.765625,-3.41796875,-22.94921875,0.0,0
1586278829.9696164,119,1,-23.92578125,-28.3203125,-46.875,-33.69140625,0.0,0
1586278829.9735227,119,1,-26.85546875,-34.66796875,-78.125,-40.0390625,0.0,0
1586278829.977429,119,1,-16.11328125,-31.25,-79.1015625,-28.3203125,0.0,0
1586278829.9813352,119,1,-20.99609375,-15.13671875,-20.01953125,-26.85546875,0.0,0
1586278829.9852414,119,1,-35.15625,-27.34375,-5.859375,-46.875,0.0,0
1586278829.9891477,119,1,-33.203125,-34.66796875,-51.26953125,-55.17578125,0.0,0
1586278829.993054,119,1,-31.73828125,-33.69140625,-46.38671875,-32.71484375,0.0,0
1586278829.9969602,119,1,-33.203125,-27.83203125,-34.1796875,-14.6484375,0.0,0
1586278830.0008664,119,1,-47.8515625,-10.7421875,-41.9921875,-25.87890625,0.0,0
1586278830.0047727,119,1,-54.19921875,-5.859375,-41.50390625,-42.96875,0.0,0
1586278830.008679,119,1,-28.80859375,-27.34375,-61.03515625,-42.96875,0.0,0
1586278830.0125852,119,1,-18.5546875,-26.85546875,-47.36328125,-24.4140625,0.0,0
1586278830.0164914,119,1,-24.4140625,-30.76171875,-19.04296875,-19.53125,0.0,0
1586278830.0203977,119,1,-33.69140625,-43.9453125,-26.85546875,-34.66796875,0.0,0
1586278830.024304,119,1,-44.921875,-22.4609375,-31.73828125,-46.38671875,0.0,0
1586278830.0282102,119,1,-45.41015625,-31.25,-31.73828125,-47.36328125,0.0,0
1586278830.0321164,119,1,-38.0859375,-43.9453125,-33.203125,-28.80859375,0.0,0
1586278830.0360227,119,1,-36.1328125,-36.1328125,-30.2734375,-15.625,0.0,0
1586278830.039929,119,1,-39.55078125,-39.0625,-22.94921875,-19.04296875,0.0,0
1586278830.0438352,119,1,-40.0390625,-34.66796875,-28.80859375,-24.4140625,0.0,0
1586278830.0477414,119,1,-32.2265625,-16.11328125,-23.92578125,-23.92578125,0.0,0
1586278830.0516477,119,1,-16.11328125,-15.13671875,-19.04296875,-16.6015625,0.0,0
1586278830.055554,119,1,-16.11328125,-20.01953125,-35.15625,-4.8828125,0.0,0
1586278830.0594602,119,1,-38.0859375,-13.671875,-60.05859375,-12.6953125,0.0,0
1586278830.0633664,119,1,-46.875,-9.765625,-50.78125,-36.1328125,0.0,0
1586278830.0672727,119,1,-33.69140625,-23.92578125,-17.578125,-35.64453125,0.0,0
1586278830.071179,119,1,-24.4140625,-29.78515625,-16.11328125,-30.76171875,0.0,0
1586278830.0750852,119,1,-24.90234375,-40.52734375,-32.2265625,-30.76171875,0.0,0
1586278830.0789914,119,1,-24.90234375,-42.96875,-31.25,-25.87890625,0.0,0
1586278830.0828977,119,1,-24.4140625,-31.73828125,-15.13671875,-24.90234375,0.0,0
1586278830.086804,119,1,-18.5546875,-37.109375,-29.78515625,-33.203125,0.0,0
1586278830.0907102,119,1,-2.44140625,-47.36328125,-86.42578125,-23.4375,0.0,0
1586278830.0946164,119,1,-0.48828125,-29.78515625,-70.80078125,-6.34765625,0.0,0
1586278830.0985227,119,1,-9.765625,-8.30078125,-11.71875,-5.859375,0.0,0
1586278830.102429,119,1,-8.30078125,-2.44140625,-28.80859375,-13.18359375,0.0,0
1586278830.1063352,119,1,-12.6953125,-21.484375,-44.43359375,-23.92578125,0.0,0
1586278830.1102414,119,1,-17.08984375,-27.83203125,-28.80859375,-22.94921875,0.0,0
1586278830.1141477,119,1,-22.4609375,-26.85546875,-28.3203125,-12.20703125,0.0,0
1586278830.118054,119,1,-23.92578125,-47.36328125,-30.76171875,-9.765625,0.0,0
1586278830.1219602,119,1,-20.01953125,-55.6640625,-36.62109375,-15.13671875,0.0,0
1586278830.1258664,119,1,-29.78515625,-37.59765625,-48.33984375,-24.90234375,0.0,0
1586278830.1297727,119,1,-31.73828125,-36.62109375,-35.15625,-26.85546875,0.0,0
1586278830.133679,119,1,-16.6015625,-24.4140625,-22.94921875,-13.671875,0.0,0
1586278830.1375852,119,1,-10.7421875,-20.5078125,-16.6015625,-5.859375,0.0,0
1586278830.1414914,119,1,-18.5546875,-19.53125,-23.92578125,-23.92578125,0.0,0
1586278830.1453977,119,1,-33.69140625,-20.99609375,-42.48046875,-46.875,0.0,0
1586278830.149304,119,1,-35.15625,-48.828125,-47.8515625,-36.1328125,0.0,0
1586278830.1532102,119,1,-23.4375,-53.22265625,-37.59765625,-10.7421875,0.0,0
1586278830.1571164,119,1,-15.625,-34.1796875,-38.0859375,-11.71875,0.0,0
1586278830.1610227,119,1,-14.6484375,-24.90234375,-41.50390625,-23.92578125,0.0,0
1586278830.164929,119,1,-23.92578125,-26.3671875,-43.9453125,-34.1796875,0.0,0
1586278830.1688352,119,1,-20.99609375,-27.34375,-23.92578125,-27.34375,0.0,0
1586278830.1727414,119,1,-14.6484375,-34.1796875,6.34765625,-7.8125,0.0,0
1586278830.1766477,119,1,-20.01953125,-26.85546875,-4.39453125,-8.7890625,0.0,0
1586278830.180554,119,1,-24.90234375,-19.53125,-33.69140625,-12.20703125,0.0,0
1586278830.1844602,119,1,-26.85546875,-40.52734375,-52.734375,-15.13671875,0.0,0
1586278830.1883664,119,1,-16.11328125,-35.64453125,-52.24609375,-16.11328125,0.0,0
1586278830.1922727,119,1,-10.25390625,-37.109375,-54.19921875,-5.37109375,0.0,0
1586278830.196179,119,1,-9.27734375,-30.2734375,-26.3671875,-1.953125,0.0,0
1586278830.2000852,119,1,-13.18359375,-20.5078125,-8.30078125,-12.6953125,0.0,0
1586278830.2039914,119,1,-29.78515625,-38.0859375,-52.24609375,-31.25,0.0,0
1586278830.2078977,119,1,-35.15625,-32.2265625,-37.109375,-33.69140625,0.0,0
1586278830.211804,119,1,-32.71484375,-26.3671875,-23.4375,-21.97265625,0.0,0
1586278830.2157102,119,1,-30.2734375,-24.90234375,-44.921875,-2.9296875,0.0,0
1586278830.2196164,119,1,-32.2265625,-21.97265625,-53.7109375,-8.7890625,0.0,0
1586278830.2235227,119,1,-35.15625,-25.390625,-50.78125,-18.06640625,0.0,0
1586278830.227429,119,1,-38.57421875,-22.4609375,-22.4609375,-12.6953125,0.0,0
1586278830.2313352,119,1,-35.15625,-35.15625,-7.32421875,-11.23046875,0.0,0
1586278830.2352414,119,1,-26.85546875,-49.31640625,-16.6015625,-4.39453125,0.0,0
1586278830.2391477,119,1,-36.1328125,-31.25,-30.2734375,-3.41796875,0.0,0
1586278830.243054,119,1,-38.57421875,-24.4140625,-50.29296875,-10.25390625,0.0,0
1586278830.2469602,119,1,-29.296875,-27.34375,-41.9921875,-18.5546875,0.0,0
1586278830.2508664,119,1,-21.97265625,-26.3671875,-28.80859375,-12.20703125,0.0,0
1586278830.2547727,119,1,-12.20703125,-45.41015625,-36.62109375,-0.9765625,0.0,0
1586278830.258679,119,1,-12.20703125,-55.6640625,-24.4140625,-7.8125,0.0,0
1586278830.2625852,119,1,-24.4140625,-27.83203125,-32.2265625,-26.85546875,0.0,0
1586278830.2664914,119,1,-24.4140625,-9.765625,-37.59765625,-30.76171875,0.0,0
1586278830.2703977,119,1,-20.99609375,-4.8828125,-5.859375,-19.53125,0.0,0
1586278830.274304,119,1,-19.04296875,-1.953125,-18.5546875,-11.23046875,0.0,0
1586278830.2782102,119,1,-19.53125,-20.5078125,-39.0625,-4.8828125,0.0,0
1586278830.2821164,119,1,-21.97265625,-41.50390625,-25.390625,-11.71875,0.0,0
1586278830.2860227,119,1,-17.08984375,-34.66796875,-37.59765625,-24.4140625,0.0,0
1586278830.289929,119,1,-12.6953125,-20.5078125,-49.31640625,-23.92578125,0.0,0
1586278830.2938352,119,1,-13.18359375,-20.99609375,-39.0625,-21.97265625,0.0,0
1586278830.2977414,119,1,-16.11328125,-36.62109375,-30.2734375,-18.06640625,0.0,0
1586278830.3016477,119,1,-19.04296875,-41.015625,-27.83203125,-18.5546875,0.0,0
1586278830.305554,119,1,-17.578125,-28.80859375,-42.96875,-24.4140625,0.0,0
1586278830.3094602,119,1,-15.625,-34.1796875,-20.01953125,-17.08984375,0.0,0
1586278830.3133664,119,1,-22.4609375,-42.96875,-14.16015625,-12.6953125,0.0,0
1586278830.3172727,119,1,-31.25,-30.76171875,-37.59765625,-11.71875,0.0,0
1586278830.321179,119,1,-32.71484375,-30.76171875,-31.25,-21.97265625,0.0,0
1586278830.3250852,119,1,-31.73828125,-37.59765625,-40.0390625,-33.203125,0.0,0
1586278830.3289914,119,1,-32.2265625,-41.9921875,-61.5234375,-31.73828125,0.0,0
1586278830.3328977,119,1,-22.4609375,-48.828125,-54.19921875,-23.4375,0.0,0
1586278830.336804,119,1,-20.01953125,-39.0625,-22.94921875,-7.8125,0.0,0
1586278830.3407102,119,1,-27.34375,-22.4609375,-23.92578125,-14.6484375,0.0,0
1586278830.3446164,119,1,-32.2265625,-29.78515625,-33.203125,-27.83203125,0.0,0
1586278830.3485227,119,1,-40.52734375,-35.64453125,-33.69140625,-29.296875,0.0,0
1586278830.352429,119,1,-38.57421875,-22.4609375,-30.2734375,-16.6015625,0.0,0
1586278830.3563352,119,1,-32.71484375,-27.34375,-19.53125,1.953125,0.0,0
1586278830.3602414,119,1,-34.66796875,-35.15625,-10.25390625,-3.90625,0.0,0
1586278830.3641477,119,1,-41.9921875,-39.55078125,-47.36328125,-32.2265625,0.0,0
1586278830.368054,119,1,-39.55078125,-49.31640625,-56.640625,-43.9453125,0.0,0
1586278830.3719602,119,1,-24.90234375,-28.3203125,-13.18359375,-20.5078125,0.0,0
1586278830.3758664,119,1,-21.97265625,-4.39453125,-15.13671875,-7.8125,0.0,0
1586278830.3797727,119,1,-28.80859375,-22.94921875,-30.76171875,-13.671875,0.0,0
1586278830.383679,119,1,-19.04296875,-23.92578125,-47.8515625,-19.04296875,0.0,0
1586278830.3875852,119,1,-15.13671875,-17.08984375,-44.921875,-14.16015625,0.0,0
1586278830.3914914,119,1,-20.99609375,-32.71484375,-40.0390625,-7.32421875,0.0,0
1586278830.3953977,119,1,-9.765625,-25.87890625,-30.76171875,-1.953125,0.0,0
1586278830.399304,119,1,-14.16015625,-4.39453125,-5.859375,-6.8359375,0.0,0
1586278830.4032102,119,1,-31.73828125,-13.18359375,-17.08984375,-21.484375,0.0,0
1586278830.4071164,119,1,-33.69140625,-29.296875,-37.59765625,-25.87890625,0.0,0
1586278830.4110227,119,1,-28.3203125,-23.92578125,-30.76171875,-18.5546875,0.0,0
1586278830.414929,119,1,-15.625,-7.8125,-14.16015625,-3.90625,0.0,0
1586278830.4188352,119,1,-16.6015625,-21.97265625,-30.2734375,-6.8359375,0.0,0
1586278830.4227414,119,1,-21.97265625,-35.64453125,-45.41015625,-19.04296875,0.0,0
1586278830.4266477,119,1,-28.80859375,-43.45703125,-35.64453125,-23.4375,0.0,0
1586278830.430554,119,1,-34.1796875,-37.59765625,-23.4375,-24.4140625,0.0,0
1586278830.4344602,119,1,-33.69140625,-12.6953125,-26.3671875,-17.08984375,0.0,0
1586278830.4383664,119,1,-28.80859375,-7.8125,-13.18359375,-13.671875,0.0,0
1586278830.4422727,119,1,-29.296875,-15.13671875,-4.8828125,-35.15625,0.0,0
1586278830.446179,119,1,-35.64453125,-38.0859375,-34.1796875,-43.9453125,0.0,0
1586278830.4500852,119,1,-34.66796875,-59.5703125,-40.52734375,-29.78515625,0.0,0
1586278830.4539914,119,1,-25.390625,-40.52734375,-29.78515625,-10.25390625,0.0,0
1586278830.4578977,119,1,-21.484375,-28.3203125,-29.78515625,-8.30078125,0.0,0
1586278830.461804,119,1,-24.90234375,-34.66796875,-15.625,-19.53125,0.0,0
1586278830.4657102,119,1,-25.390625,-14.16015625,-13.671875,-20.5078125,0.0,0
1586278830.4696164,119,1,-28.3203125,-3.41796875,3.41796875,-28.80859375,0.0,0
1586278830.4735227,119,1,-32.2265625,-20.5078125,-16.11328125,-29.78515625,0.0,0
1586278830.477429,119,1,-29.78515625,-25.87890625,-53.22265625,-26.3671875,0.0,0
1586278830.4813352,119,1,-27.34375,-33.69140625,-41.015625,-28.80859375,0.0,0
1586278830.4852414,119,1,-19.53125,-37.59765625,-35.15625,-33.69140625,0.0,0
1586278830.4891477,119,1,-18.5546875,-33.69140625,-42.96875,-38.0859375,0.0,0
1586278830.493054,119,1,-18.5546875,-37.59765625,-29.78515625,-29.296875,0.0,0
1586278830.4969602,119,1,-11.23046875,-32.71484375,-23.92578125,-12.20703125,0.0,0
1586278830.5008664,119,1,-16.6015625,-12.20703125,-17.578125,-14.16015625,0.0,0
1586278830.5047727,119,1,-19.04296875,-13.18359375,-0.48828125,-26.85546875,0.0,0
1586278830.508679,119,1,-18.06640625,-25.87890625,3.90625,-34.1796875,0.0,0
1586278830.5125852,119,1,-21.97265625,-24.90234375,-11.71875,-25.390625,0.0,0
1586278830.5164914,119,1,-30.76171875,-46.875,-25.87890625,-22.4609375,0.0,0
1586278830.5203977,119,1,-32.2265625,-42.96875,-24.90234375,-31.73828125,0.0,0
1586278830.524304,119,1,-29.296875,-43.9453125,-27.83203125,-37.109375,0.0,0
1586278830.5282102,119,1,-35.15625,-46.38671875,-48.828125,-41.50390625,0.0,0
1586278830.5321164,119,1,-28.3203125,-28.80859375,-47.36328125,-33.69140625,0.0,0
1586278830.5360227,119,1,-14.6484375,-36.62109375,-27.83203125,-18.5546875,0.0,0
1586278830.539929,119,1,-17.08984375,-32.71484375,-24.90234375,-14.16015625,0.0,0
1586278830.5438352,119,1,-24.4140625,-9.27734375,-5.859375,-16.11328125,0.0,0
1586278830.5477414,119,1,-28.3203125,-16.11328125,0.9765625,-20.5078125,0.0,0
1586278830.5516477,119,1,-30.76171875,-40.52734375,-20.99609375,-20.01953125,0.0,0
1586278830.555554,119,1,-28.80859375,-46.38671875,-30.76171875,-13.18359375,0.0,0
1586278830.5594602,119,1,-27.83203125,-45.8984375,-20.5078125,-17.08984375,0.0,0
1586278830.5633664,119,1,-32.71484375,-52.734375,-26.85546875,-38.57421875,0.0,0
1586278830.5672727,119,1,-34.66796875,-39.55078125,-61.03515625,-47.8515625,0.0,0
1586278830.571179,119,1,-25.390625,-33.203125,-44.921875,-25.87890625,0.0,0
1586278830.5750852,119,1,-15.13671875,-32.71484375,-18.06640625,-8.7890625,0.0,0
1586278830.5789914,119,1,-20.5078125,-18.06640625,-30.2734375,-17.08984375,0.0,0
1586278830.5828977,119,1,-29.296875,-9.765625,-7.8125,-20.99609375,0.0,0
1586278830.586804,119,1,-32.2265625,-14.6484375,-6.34765625,-20.01953125,0.0,0
1586278830.5907102,119,1,-25.87890625,-21.484375,-20.99609375,-15.625,0.0,0
1586278830.5946164,119,1,-16.11328125,-16.11328125,-22.4609375,-4.39453125,0.0,0
1586278830.5985227,119,1,-20.99609375,-37.59765625,-22.94921875,-13.671875,0.0,0
1586278830.602429,119,1,-35.64453125,-45.8984375,-24.90234375,-38.57421875,0.0,0
1586278830.6063352,119,1,-44.43359375,-32.2265625,-41.50390625,-49.8046875,0.0,0
1586278830.6102414,119,1,-36.62109375,-66.40625,-43.45703125,-33.69140625,0.0,0
1586278830.6141477,119,1,-29.296875,-51.26953125,-12.20703125,-16.6015625,0.0,0
1586278830.618054,119,1,-31.25,-6.34765625,-14.6484375,-18.06640625,0.0,0
1586278830.6219602,119,1,-41.015625,-20.5078125,-24.4140625,-35.64453125,0.0,0
1586278830.6258664,119,1,-49.8046875,-25.87890625,-29.78515625,-50.78125,0.0,0
1586278830.6297727,119,1,-43.45703125,-19.53125,-43.45703125,-47.8515625,0.0,0
1586278830.633679,119,1,-34.1796875,-38.57421875,-34.1796875,-27.83203125,0.0,0
1586278830.6375852,119,1,-25.390625,-50.29296875,-30.76171875,-19.04296875,0.0,0
1586278830.6414914,119,1,-26.3671875,-38.57421875,-30.76171875,-23.4375,0.0,0
1586278830.6453977,119,1,-30.2734375,-41.015625,-36.1328125,-23.92578125,0.0,0
1586278830.649304,119,1,-27.83203125,-22.94921875,-51.26953125,-21.97265625,0.0,0
1586278830.6532102,119,1,-22.94921875,-2.9296875,-51.26953125,-11.71875,0.0,0
1586278830.6571164,119,1,-23.4375,-15.13671875,-20.5078125,-3.41796875,0.0,0
1586278830.6610227,119,1,-25.87890625,-25.87890625,-6.8359375,-7.8125,0.0,0
1586278830.664929,119,1,-22.4609375,-31.73828125,-20.5078125,-13.18359375,0.0,0
1586278830.6688352,119,1,-19.53125,-42.96875,-27.34375,-17.08984375,0.0,0
1586278830.6727414,119,1,-11.71875,-41.50390625,-19.04296875,-15.625,0.0,0
1586278830.6766477,119,1,-3.90625,-20.01953125,-34.66796875,-5.37109375,0.0,0
1586278830.680554,119,1,-15.13671875,-21.484375,-36.62109375,-6.34765625,0.0,0
1586278830.6844602,119,1,-22.94921875,-22.94921875,-15.13671875,-24.90234375,0.0,0
1586278830.6883664,119,1,-15.13671875,-18.5546875,-20.01953125,-25.390625,0.0,0
1586278830.6922727,119,1,-14.6484375,-27.34375,-18.5546875,-5.37109375,0.0,0
1586278830.696179,119,1,-15.625,-20.99609375,-4.39453125,-4.39453125,0.0,0
1586278830.7000852,119,1,-14.6484375,-25.390625,-8.30078125,-15.13671875,0.0,0
1586278830.7039914,119,1,-23.4375,-31.73828125,-18.5546875,-34.66796875,0.0,0
1586278830.7078977,119,1,-22.4609375,-20.99609375,-22.94921875,-35.15625,0.0,0
1586278830.711804,119,1,-16.6015625,-11.23046875,-32.71484375,-18.5546875,0.0,0
1586278830.7157102,119,1,-14.6484375,-17.08984375,-44.43359375,-18.5546875,0.0,0
1586278830.7196164,119,1,-20.01953125,-35.64453125,-20.99609375,-29.78515625,0.0,0
1586278830.7235227,119,1,-27.34375,-34.66796875,-23.4375,-45.8984375,0.0,0
1586278830.727429,119,1,-25.390625,-18.06640625,-47.8515625,-41.9921875,0.0,0
1586278830.7313352,119,1,-23.92578125,-23.92578125,-29.296875,-32.71484375,0.0,0
1586278830.7352414,119,1,-16.11328125,-37.109375,-20.5078125,-16.11328125,0.0,0
1586278830.7391477,119,1,-19.04296875,-27.83203125,-34.1796875,-13.18359375,0.0,0
1586278830.743054,119,1,-36.1328125,-18.06640625,-26.3671875,-34.66796875,0.0,0
1586278830.7469602,119,1,-35.15625,-22.4609375,-33.69140625,-41.50390625,0.0,0
1586278830.7508664,119,1,-26.3671875,-28.3203125,-36.62109375,-32.71484375,0.0,0
1586278830.7547727,119,1,-15.625,-24.90234375,-35.15625,-14.6484375,0.0,0
1586278830.758679,119,1,-11.23046875,-33.203125,-26.3671875,0.48828125,0.0,0
1586278830.7625852,119,1,-11.71875,-35.15625,-44.921875,-10.25390625,0.0,0
1586278830.7664914,119,1,-7.32421875,-21.97265625,-59.5703125,-19.53125,0.0,0
1586278830.7703977,119,1,-3.41796875,-19.04296875,-25.87890625,-2.44140625,0.0,0
1586278830.774304,119,1,0.9765625,-25.87890625,-23.92578125,-2.44140625,0.0,0
1586278830.7782102,119,1,-0.48828125,-26.3671875,-16.6015625,-6.8359375,0.0,0
1586278830.7821164,119,1,-4.39453125,-22.4609375,-21.97265625,-6.8359375,0.0,0
1586278830.7860227,119,1,-11.23046875,-36.1328125,-37.109375,-23.92578125,0.0,0
1586278830.789929,119,1,-12.6953125,-41.015625,-37.109375,-33.203125,0.0,0
1586278830.7938352,119,1,-17.578125,-47.8515625,-56.640625,-28.3203125,0.0,0
1586278830.7977414,119,1,-24.90234375,-36.1328125,-54.19921875,-25.390625,0.0,0
1586278830.8016477,119,1,-21.97265625,-28.80859375,-40.0390625,-26.85546875,0.0,0
1586278830.805554,119,1,-19.53125,-18.5546875,-35.15625,-27.83203125,0.0,0
1586278830.8094602,119,1,-22.4609375,-5.37109375,-20.5078125,-25.390625,0.0,0
1586278830.8133664,119,1,-20.99609375,-21.97265625,-2.44140625,-18.06640625,0.0,0
1586278830.8172727,119,1,-26.3671875,-35.15625,-37.59765625,-22.94921875,0.0,0
1586278830.821179,119,1,-35.64453125,-43.9453125,-64.453125,-30.2734375,0.0,0
1586278830.8250852,119,1,-39.55078125,-41.015625,-30.2734375,-35.15625,0.0,0
1586278830.8289914,119,1,-35.64453125,-32.71484375,3.90625,-41.50390625,0.0,0
1586278830.8328977,119,1,-35.15625,-45.8984375,-17.08984375,-30.2734375,0.0,0
1586278830.836804,119,1,-26.3671875,-26.85546875,-34.66796875,-13.671875,0.0,0
1586278830.8407102,119,1,-21.97265625,-17.08984375,-29.296875,-15.13671875,0.0,0
1586278830.8446164,119,1,-27.83203125,-32.2265625,-19.04296875,-18.5546875,0.0,0
1586278830.8485227,119,1,-20.01953125,-21.484375,-22.94921875,-19.53125,0.0,0
1586278830.852429,119,1,-10.25390625,-21.484375,-34.66796875,-7.32421875,0.0,0
1586278830.8563352,119,1,-8.7890625,-30.2734375,-23.4375,7.8125,0.0,0
1586278830.8602414,119,1,-13.18359375,-22.4609375,-21.97265625,-4.39453125,0.0,0
1586278830.8641477,119,1,-21.97265625,-41.015625,-46.38671875,-19.04296875,0.0,0
1586278830.868054,119,1,-20.99609375,-80.56640625,-42.96875,-11.71875,0.0,0
1586278830.8719602,119,1,-15.625,-61.03515625,-14.6484375,-3.90625,0.0,0
1586278830.8758664,119,1,-15.13671875,-23.92578125,-20.01953125,4.8828125,0.0,0
1586278830.8797727,119,1,-18.5546875,-21.484375,-41.9921875,-1.953125,0.0,0
1586278830.883679,119,1,-19.53125,-32.71484375,-46.875,-22.4609375,0.0,0
1586278830.8875852,119,1,-22.94921875,-22.94921875,-42.48046875,-27.34375,0.0,0
1586278830.8914914,119,1,-16.6015625,-4.8828125,-24.4140625,-21.97265625,0.0,0
1586278830.8953977,119,1,-3.41796875,-19.53125,-31.73828125,-9.765625,0.0,0
1586278830.899304,119,1,-15.625,-31.25,-33.203125,-20.99609375,0.0,0
1586278830.9032102,119,1,-25.390625,-24.90234375,-15.625,-37.109375,0.0,0
1586278830.9071164,119,1,-28.3203125,-18.06640625,-11.71875,-31.73828125,0.0,0
1586278830.9110227,119,1,-25.87890625,-28.80859375,-21.484375,-22.94921875,0.0,0
1586278830.914929,119,1,-20.01953125,-33.203125,-20.99609375,-11.23046875,0.0,0
1586278830.9188352,119,1,-20.01953125,-38.0859375,-15.625,-7.32421875,0.0,0
1586278830.9227414,119,1,-25.87890625,-33.69140625,-32.71484375,-21.97265625,0.0,0
1586278830.9266477,119,1,-29.78515625,-23.92578125,-52.24609375,-39.0625,0.0,0
1586278830.930554,119,1,-24.4140625,-27.34375,-47.36328125,-26.3671875,0.0,0
1586278830.9344602,119,1,-28.3203125,-30.2734375,-33.203125,-5.37109375,0.0,0
1586278830.9383664,119,1,-33.203125,-29.296875,-27.34375,-3.90625,0.0,0
1586278830.9422727,119,1,-25.87890625,-34.66796875,-23.92578125,-2.44140625,0.0,0
1586278830.946179,119,1,-29.78515625,-26.85546875,-42.96875,-9.27734375,0.0,0
1586278830.9500852,119,1,-28.80859375,-0.9765625,-14.16015625,-6.8359375,0.0,0
1586278830.9539914,119,1,-8.30078125,-9.765625,-6.34765625,19.53125,0.0,0
1586278830.9578977,119,1,-6.34765625,-32.71484375,-25.390625,18.06640625,0.0,0
1586278830.961804,119,1,-26.85546875,-29.78515625,-33.203125,-18.06640625,0.0,0
1586278830.9657102,119,1,-32.71484375,-46.38671875,-56.640625,-28.80859375,0.0,0
1586278830.9696164,119,1,-24.90234375,-58.10546875,-41.015625,-17.578125,0.0,0
1586278830.9735227,119,1,-20.5078125,-30.2734375,-15.13671875,-3.41796875,0.0,0
1586278830.977429,119,1,-20.99609375,-18.5546875,-6.8359375,7.32421875,0.0,0
1586278830.9813352,119,1,-24.90234375,-31.25,-13.671875,-10.25390625,0.0,0
1586278830.9852414,119,1,-26.85546875,-32.2265625,-26.85546875,-32.2265625,0.0,0
1586278830.9891477,119,1,-23.4375,-17.578125,-24.4140625,-36.1328125,0.0,0
1586278830.993054,119,1,-16.11328125,-21.97265625,-45.41015625,-25.390625,0.0,0
1586278830.9969602,119,1,-15.13671875,-42.96875,-71.77734375,-15.625,0.0,0
1586278831.0008664,119,1,-24.4140625,-32.71484375,-40.0390625,-22.4609375,0.0,0
1586278831.0047727,119,1,-37.59765625,-18.5546875,-28.80859375,-30.76171875,0.0,0
1586278831.008679,119,1,-36.62109375,-34.66796875,-38.0859375,-28.3203125,0.0,0
1586278831.0125852,119,1,-35.64453125,-45.41015625,-30.2734375,-20.01953125,0.0,0
1586278831.0164914,119,1,-37.59765625,-63.96484375,-30.2734375,-9.27734375,0.0,0
1586278831.0203977,119,1,-37.109375,-52.734375,-8.30078125,-5.859375,0.0,0
1586278831.024304,119,1,-41.9921875,-26.3671875,-0.48828125,-28.80859375,0.0,0
1586278831.0282102,119,1,-39.0625,-21.97265625,-14.16015625,-41.50390625,0.0,0
1586278831.0321164,119,1,-33.69140625,-17.08984375,-47.36328125,-28.3203125,0.0,0
1586278831.0360227,119,1,-22.4609375,-35.15625,-61.5234375,-16.6015625,0.0,0
1586278831.039929,119,1,-20.5078125,-45.8984375,-62.01171875,-12.6953125,0.0,0
1586278831.0438352,119,1,-24.4140625,-20.5078125,-66.40625,-19.53125,0.0,0
1586278831.0477414,119,1,-18.5546875,-16.6015625,-42.96875,-25.390625,0.0,0
1586278831.0516477,119,1,-8.30078125,-20.01953125,-8.7890625,-6.34765625,0.0,0
1586278831.055554,119,1,-3.90625,-5.859375,-9.27734375,15.625,0.0,0
1586278831.0594602,119,1,-16.11328125,-14.6484375,-31.25,-3.41796875,0.0,0
1586278831.0633664,119,1,-20.5078125,-29.296875,-16.6015625,-20.99609375,0.0,0
1586278831.0672727,119,1,-15.13671875,-27.83203125,-7.8125,-11.23046875,0.0,0
1586278831.071179,119,1,-18.5546875,-39.0625,-12.20703125,-3.90625,0.0,0
1586278831.0750852,119,1,-17.578125,-44.43359375,-26.85546875,-1.46484375,0.0,0
1586278831.0789914,119,1,-7.8125,-28.3203125,-47.8515625,-7.32421875,0.0,0
1586278831.0828977,119,1,-11.71875,-34.1796875,-45.41015625,-26.3671875,0.0,0
1586278831.086804,119,1,-20.99609375,-41.015625,-54.19921875,-30.76171875,0.0,0
1586278831.0907102,119,1,-23.92578125,-29.296875,-53.7109375,-13.671875,0.0,0
1586278831.0946164,119,1,-25.87890625,-24.4140625,-33.203125,-2.44140625,0.0,0
1586278831.0985227,119,1,-27.34375,-25.390625,-17.578125,-15.625,0.0,0
1586278831.102429,119,1,-29.296875,-38.0859375,-3.41796875,-30.76171875,0.0,0
1586278831.1063352,119,1,-30.2734375,-46.875,3.41796875,-32.2265625,0.0,0
1586278831.1102414,119,1,-32.71484375,-35.15625,-25.87890625,-26.85546875,0.0,0
1586278831.1141477,119,1,-33.203125,-21.484375,-56.15234375,-18.06640625,0.0,0
1586278831.118054,119,1,-29.78515625,-23.92578125,-36.62109375,-26.3671875,0.0,0
1586278831.1219602,119,1,-33.69140625,-35.15625,-37.109375,-37.109375,0.0,0
1586278831.1258664,119,1,-54.6875,-44.43359375,-64.94140625,-42.48046875,0.0,0
1586278831.1297727,119,1,-53.7109375,-25.390625,-53.22265625,-36.62109375,0.0,0
1586278831.133679,119,1,-39.0625,-9.765625,-25.390625,-20.99609375,0.0,0
1586278831.1375852,119,1,-38.57421875,-18.06640625,-24.4140625,-18.06640625,0.0,0
1586278831.1414914,119,1,-49.31640625,-27.83203125,-22.4609375,-39.55078125,0.0,0
1586278831.1453977,119,1,-52.734375,-22.94921875,-13.671875,-62.98828125,0.0,0
1586278831.149304,119,1,-45.8984375,-13.671875,-9.27734375,-64.453125,0.0,0
1586278831.1532102,119,1,-45.8984375,-4.8828125,2.44140625,-52.734375,0.0,0
1586278831.1571164,119,1,-53.22265625,3.41796875,1.953125,-58.59375,0.0,0
1586278831.1610227,119,1,-57.12890625,-3.41796875,2.9296875,-66.40625,0.0,0
1586278831.164929,119,1,-61.03515625,-9.765625,7.32421875,-64.453125,0.0,0
1586278831.1688352,119,1,-68.359375,-12.20703125,-18.5546875,-65.4296875,0.0,0
1586278831.1727414,119,1,-62.01171875,-8.30078125,-18.06640625,-56.640625,0.0,0
1586278831.1766477,119,1,-59.5703125,8.7890625,20.5078125,-50.78125,0.0,0
1586278831.180554,119,1,-60.546875,1.46484375,9.27734375,-57.12890625,0.0,0
1586278831.1844602,119,1,-60.05859375,-8.7890625,-4.39453125,-67.87109375,0.0,0
1586278831.1883664,119,1,-62.01171875,0.48828125,1.46484375,-73.2421875,0.0,0
1586278831.1922727,119,1,-55.6640625,-11.71875,-15.13671875,-50.78125,0.0,0
1586278831.196179,119,1,-59.5703125,-20.01953125,-24.4140625,-32.71484375,0.0,0
1586278831.2000852,119,1,-65.4296875,2.9296875,-8.30078125,-43.45703125,0.0,0
1586278831.2039914,119,1,-70.3125,-3.90625,0.48828125,-58.10546875,0.0,0
1586278831.2078977,119,1,-70.80078125,-15.625,-8.7890625,-65.4296875,0.0,0
1586278831.211804,119,1,-59.5703125,-17.578125,-19.53125,-51.26953125,0.0,0
1586278831.2157102,119,1,-52.734375,-26.85546875,-18.5546875,-32.71484375,0.0,0
1586278831.2196164,119,1,-46.875,-31.25,-16.11328125,-29.78515625,0.0,0
1586278831.2235227,119,1,-37.59765625,-35.15625,-22.94921875,-41.015625,0.0,0
1586278831.227429,119,1,-29.78515625,-44.921875,-27.34375,-46.875,0.0,0
1586278831.2313352,119,1,-18.06640625,-42.96875,-42.48046875,-38.0859375,0.0,0
1586278831.2352414,119,1,-4.39453125,-25.87890625,-47.36328125,-18.5546875,0.0,0
1586278831.2391477,119,1,-7.8125,-15.13671875,-25.390625,-10.7421875,0.0,0
1586278831.243054,119,1,-8.7890625,-13.18359375,-32.71484375,-7.8125,0.0,0
1586278831.2469602,119,1,1.953125,-6.8359375,-30.2734375,-3.90625,0.0,0
1586278831.2508664,119,1,6.8359375,-0.48828125,-21.97265625,-7.32421875,0.0,0
1586278831.2547727,119,1,7.32421875,-10.25390625,-40.52734375,-5.859375,0.0,0
1586278831.258679,119,1,-0.48828125,-36.62109375,-44.43359375,-5.859375,0.0,0
1586278831.2625852,119,1,-2.44140625,-45.41015625,-35.15625,-10.25390625,0.0,0
1586278831.2664914,119,1,4.8828125,-41.50390625,-49.8046875,-3.90625,0.0,0
1586278831.2703977,119,1,11.71875,-38.0859375,-30.76171875,18.06640625,0.0,0
1586278831.274304,119,1,17.08984375,-31.73828125,-40.0390625,30.76171875,0.0,0
1586278831.2782102,119,1,19.04296875,-30.2734375,-80.078125,25.87890625,0.0,0
1586278831.2821164,119,1,12.6953125,-25.87890625,-44.921875,8.7890625,0.0,0
1586278831.2860227,119,1,3.90625,-16.11328125,-15.13671875,5.859375,0.0,0
1586278831.289929,119,1,6.34765625,-20.01953125,-10.25390625,13.671875,0.0,0
1586278831.2938352,119,1,6.8359375,-26.85546875,-26.3671875,21.97265625,0.0,0
1586278831.2977414,119,1,4.39453125,-20.01953125,-43.9453125,23.92578125,0.0,0
1586278831.3016477,119,1,-1.953125,-31.25,-17.578125,4.39453125,0.0,0
1586278831.305554,119,1,-9.765625,-63.4765625,-15.13671875,-1.46484375,0.0,0
1586278831.3094602,119,1,-13.671875,-64.453125,-29.78515625,1.46484375,0.0,0
1586278831.3133664,119,1,-9.765625,-48.33984375,-36.62109375,1.953125,0.0,0
1586278831.3172727,119,1,-11.23046875,-45.8984375,-44.921875,3.90625,0.0,0
1586278831.321179,119,1,-18.06640625,-42.96875,-44.43359375,-14.16015625,0.0,0
1586278831.3250852,119,1,-30.76171875,-35.15625,-38.57421875,-33.203125,0.0,0
1586278831.3289914,119,1,-42.96875,-29.78515625,-23.92578125,-32.2265625,0.0,0
1586278831.3328977,119,1,-43.45703125,-26.85546875,-16.11328125,-28.3203125,0.0,0
1586278831.336804,119,1,-54.19921875,-27.34375,-3.90625,-42.96875,0.0,0
1586278831.3407102,119,1,-85.44921875,-32.2265625,17.08984375,-81.54296875,0.0,0
1586278831.3446164,119,1,-104.00390625,-25.390625,13.18359375,-112.3046875,0.0,0
1586278831.3485227,119,1,-134.765625,-18.06640625,10.25390625,-144.04296875,0.0,0
1586278831.352429,119,1,-177.734375,-16.11328125,17.578125,-173.33984375,0.0,0
1586278831.3563352,119,1,-195.80078125,-12.20703125,42.96875,-184.5703125,0.0,0
1586278831.3602414,119,1,-219.7265625,-8.7890625,58.10546875,-217.7734375,0.0,0
1586278831.3641477,119,1,-248.046875,3.90625,57.6171875,-263.18359375,0.0,0
1586278831.368054,119,1,-259.765625,5.37109375,72.265625,-277.34375,0.0,0
1586278831.3719602,119,1,-270.5078125,10.7421875,67.87109375,-274.90234375,0.0,0
1586278831.3758664,119,1,-281.25,20.99609375,57.12890625,-277.83203125,0.0,0
1586278831.3797727,119,1,-291.015625,13.671875,53.22265625,-279.78515625,0.0,0
1586278831.383679,119,1,-299.31640625,9.765625,51.7578125,-283.203125,0.0,0
1586278831.3875852,119,1,-298.33984375,26.85546875,51.7578125,-291.015625,0.0,0
1586278831.3914914,119,1,-289.0625,44.921875,35.64453125,-282.2265625,0.0,0
1586278831.3953977,119,1,-275.390625,24.90234375,15.13671875,-261.23046875,0.0,0
1586278831.399304,119,1,-264.16015625,5.37109375,32.2265625,-245.1171875,0.0,0
1586278831.4032102,119,1,-254.8828125,32.71484375,46.875,-239.74609375,0.0,0
1586278831.4071164,119,1,-235.3515625,39.55078125,47.36328125,-232.421875,0.0,0
1586278831.4110227,119,1,-218.26171875,11.71875,62.98828125,-210.9375,0.0,0
1586278831.414929,119,1,-194.82421875,26.85546875,61.5234375,-171.875,0.0,0
1586278831.4188352,119,1,-171.38671875,50.29296875,40.0390625,-156.25,0.0,0
1586278831.4227414,119,1,-152.34375,35.64453125,19.04296875,-149.90234375,0.0,0
1586278831.4266477,119,1,-122.55859375,13.671875,-7.32421875,-129.8828125,0.0,0
1586278831.430554,119,1,-92.28515625,-3.90625,-13.671875,-104.98046875,0.0,0
1586278831.4344602,119,1,-74.70703125,-18.06640625,-3.41796875,-71.77734375,0.0,0
1586278831.4383664,119,1,-58.10546875,1.953125,-0.48828125,-48.828125,0.0,0
1586278831.4422727,119,1,-41.9921875,12.20703125,-6.8359375,-42.48046875,0.0,0
1586278831.446179,119,1,-30.76171875,-16.11328125,-11.23046875,-33.69140625,0.0,0
1586278831.4500852,119,1,-10.7421875,-26.85546875,-29.296875,-10.25390625,0.0,0
1586278831.4539914,119,1,8.7890625,-25.87890625,-50.29296875,15.13671875,0.0,0
1586278831.4578977,119,1,22.94921875,-23.4375,-62.5,27.34375,0.0,0
1586278831.461804,119,1,33.203125,-15.13671875,-60.546875,27.83203125,0.0,0
1586278831.4657102,119,1,38.0859375,-31.73828125,-74.21875,19.53125,0.0,0
1586278831.4696164,119,1,48.33984375,-44.43359375,-92.28515625,27.83203125,0.0,0
1586278831.4735227,119,1,61.03515625,-43.45703125,-89.84375,51.26953125,0.0,0
1586278831.477429,119,1,59.5703125,-58.10546875,-78.61328125,56.15234375,0.0,0
1586278831.4813352,119,1,60.546875,-43.9453125,-85.44921875,53.7109375,0.0,0
1586278831.4852414,119,1,63.96484375,-27.34375,-78.125,62.5,0.0,0
1586278831.4891477,119,1,61.03515625,-41.9921875,-71.2890625,72.265625,0.0,0
1586278831.493054,119,1,65.91796875,-53.7109375,-81.54296875,89.84375,0.0,0
1586278831.4969602,119,1,67.3828125,-53.22265625,-67.3828125,95.703125,0.0,0
1586278831.5008664,119,1,60.546875,-42.48046875,-70.3125,82.03125,0.0,0
1586278831.5047727,119,1,55.17578125,-45.8984375,-62.98828125,79.1015625,0.0,0
1586278831.508679,119,1,60.05859375,-45.8984375,-77.1484375,88.8671875,0.0,0
1586278831.5125852,119,1,69.3359375,-46.875,-104.98046875,103.02734375,0.0,0
1586278831.5164914,119,1,72.75390625,-52.24609375,-92.28515625,108.88671875,0.0,0
1586278831.5203977,119,1,68.84765625,-54.6875,-88.8671875,102.5390625,0.0,0
1586278831.524304,119,1,62.01171875,-76.171875,-79.58984375,92.28515625,0.0,0
1586278831.5282102,119,1,69.3359375,-76.171875,-91.30859375,83.0078125,0.0,0
1586278831.5321164,119,1,76.171875,-47.36328125,-105.95703125,77.1484375,0.0,0
1586278831.5360227,119,1,81.0546875,-41.015625,-62.98828125,65.91796875,0.0,0
1586278831.539929,119,1,76.66015625,-43.9453125,-55.17578125,65.4296875,0.0,0
1586278831.5438352,119,1,67.87109375,-43.9453125,-96.6796875,60.05859375,0.0,0
1586278831.5477414,119,1,77.1484375,-28.80859375,-98.6328125,62.01171875,0.0,0
1586278831.5516477,119,1,86.9140625,-38.57421875,-72.265625,76.66015625,0.0,0
1586278831.555554,119,1,94.23828125,-41.50390625,-67.3828125,85.44921875,0.0,0
1586278831.5594602,119,1,93.26171875,-21.97265625,-63.96484375,84.9609375,0.0,0
1586278831.5633664,119,1,86.42578125,-28.3203125,-72.265625,67.87109375,0.0,0
1586278831.5672727,119,1,79.1015625,-37.59765625,-88.8671875,57.6171875,0.0,0
1586278831.571179,119,1,72.265625,-47.8515625,-98.14453125,65.91796875,0.0,0
1586278831.5750852,119,1,78.125,-60.05859375,-88.8671875,90.8203125,0.0,0
1586278831.5789914,119,1,79.58984375,-54.19921875,-77.1484375,90.8203125,0.0,0
1586278831.5828977,119,1,67.3828125,-37.109375,-78.125,67.3828125,0.0,0
1586278831.586804,119,1,71.2890625,-20.01953125,-106.4453125,67.3828125,0.0,0
1586278831.5907102,119,1,83.0078125,-33.69140625,-105.46875,78.61328125,0.0,0
1586278831.5946164,119,1,81.0546875,-64.94140625,-73.2421875,85.44921875,0.0,0
1586278831.5985227,119,1,70.3125,-38.57421875,-72.75390625,79.1015625,0.0,0
1586278831.602429,119,1,58.59375,-17.578125,-78.125,66.89453125,0.0,0
1586278831.6063352,119,1,56.640625,-32.2265625,-77.63671875,56.15234375,0.0,0
1586278831.6102414,119,1,63.96484375,-33.69140625,-67.87109375,53.22265625,0.0,0
1586278831.6141477,119,1,59.5703125,-42.96875,-68.84765625,57.12890625,0.0,0
1586278831.618054,119,1,51.7578125,-63.96484375,-89.84375,56.640625,0.0,0
1586278831.6219602,119,1,50.29296875,-67.3828125,-96.19140625,45.8984375,0.0,0
1586278831.6258664,119,1,42.96875,-45.41015625,-78.125,36.62109375,0.0,0
1586278831.6297727,119,1,47.8515625,-27.83203125,-86.9140625,46.875,0.0,0
1586278831.633679,119,1,52.24609375,-42.96875,-77.1484375,52.734375,0.0,0
1586278831.6375852,119,1,41.9921875,-40.52734375,-30.2734375,48.33984375,0.0,0
1586278831.6414914,119,1,36.62109375,-29.296875,-45.41015625,40.52734375,0.0,0
1586278831.6453977,119,1,30.76171875,-32.71484375,-76.66015625,32.2265625,0.0,0
1586278831.649304,119,1,38.57421875,-26.3671875,-57.12890625,28.3203125,0.0,0
1586278831.6532102,119,1,38.57421875,-18.5546875,-45.8984375,37.59765625,0.0,0
1586278831.6571164,119,1,33.203125,-20.99609375,-71.2890625,42.48046875,0.0,0
1586278831.6610227,119,1,23.92578125,-47.36328125,-70.80078125,26.85546875,0.0,0
1586278831.664929,119,1,16.11328125,-70.80078125,-67.3828125,22.4609375,0.0,0
1586278831.6688352,119,1,24.90234375,-40.52734375,-92.28515625,14.6484375,0.0,0
1586278831.6727414,119,1,31.73828125,-16.6015625,-81.0546875,25.390625,0.0,0
1586278831.6766477,119,1,35.64453125,-31.73828125,-57.12890625,39.0625,0.0,0
1586278831.680554,119,1,27.83203125,-31.73828125,-66.40625,22.4609375,0.0,0
1586278831.6844602,119,1,16.11328125,-20.5078125,-63.96484375,6.8359375,0.0,0
1586278831.6883664,119,1,17.08984375,-23.4375,-46.38671875,10.7421875,0.0,0
1586278831.6922727,119,1,21.484375,-37.59765625,-33.203125,23.4375,0.0,0
1586278831.696179,119,1,18.5546875,-54.19921875,-65.91796875,28.80859375,0.0,0
1586278831.7000852,119,1,17.578125,-42.96875,-79.58984375,26.85546875,0.0,0
1586278831.7039914,119,1,7.8125,-37.109375,-36.1328125,11.23046875,0.0,0
1586278831.7078977,119,1,-2.9296875,-36.1328125,-52.734375,1.953125,0.0,0
1586278831.711804,119,1,3.41796875,-41.015625,-62.98828125,12.20703125,0.0,0
1586278831.7157102,119,1,8.30078125,-42.48046875,-48.33984375,30.76171875,0.0,0
1586278831.7196164,119,1,-1.46484375,-32.71484375,-29.78515625,19.53125,0.0,0
1586278831.7235227,119,1,-14.6484375,-32.2265625,-51.26953125,-9.27734375,0.0,0
1586278831.727429,119,1,-14.6484375,-39.0625,-83.0078125,-13.671875,0.0,0
1586278831.7313352,119,1,-8.30078125,-54.19921875,-50.78125,-9.765625,0.0,0
1586278831.7352414,119,1,-0.9765625,-47.36328125,-44.921875,-0.48828125,0.0,0
1586278831.7391477,119,1,5.37109375,-35.15625,-40.52734375,9.27734375,0.0,0
1586278831.743054,120,3,1.46484375,-32.2265625,-32.71484375,-4.8828125,0.0,0
1586278831.7469602,120,3,3.41796875,-14.6484375,-47.8515625,-16.6015625,0.0,0
1586278831.7508664,120,3,12.20703125,-32.71484375,-37.59765625,2.44140625,0.0,0
1586278831.7547727,120,3,3.41796875,-59.5703125,-50.29296875,18.5546875,0.0,0
1586278831.758679,120,3,-13.671875,-38.0859375,-78.125,8.30078125,0.0,0
1586278831.7625852,120,3,-17.578125,-17.578125,-78.125,-18.5546875,0.0,0
1586278831.7664914,120,3,-12.6953125,-24.90234375,-52.24609375,-32.71484375,0.0,0
1586278831.7703977,120,3,-3.41796875,-35.64453125,-22.4609375,-4.8828125,0.0,0
1586278831.774304,120,3,2.9296875,-33.203125,-35.64453125,15.13671875,0.0,0
1586278831.7782102,120,3,-0.9765625,-17.08984375,-59.08203125,14.16015625,0.0,0
1586278831.7821164,120,3,-6.34765625,-13.18359375,-54.6875,6.8359375,0.0,0
1586278831.7860227,120,3,-6.8359375,-21.97265625,-38.0859375,-9.27734375,0.0,0
1586278831.789929,120,3,-6.8359375,-26.85546875,-15.13671875,-9.27734375,0.0,0
1586278831.7938352,120,3,-5.859375,-33.69140625,-23.4375,8.7890625,0.0,0
1586278831.7977414,120,3,-4.39453125,-40.0390625,-32.2265625,18.06640625,0.0,0
1586278831.8016477,120,3,-11.71875,-40.0390625,-14.16015625,3.41796875,0.0,0
1586278831.805554,120,3,-21.484375,-38.57421875,-27.34375,-11.23046875,0.0,0
1586278831.8094602,120,3,-21.97265625,-36.62109375,-49.31640625,-8.7890625,0.0,0
1586278831.8133664,120,3,-12.6953125,-43.9453125,-39.55078125,2.44140625,0.0,0
1586278831.8172727,120,3,-16.6015625,-55.17578125,-38.0859375,0.0,0.0,0
1586278831.821179,120,3,-21.97265625,-41.9921875,-59.5703125,-13.18359375,0.0,0
1586278831.8250852,120,3,-18.5546875,-24.90234375,-56.15234375,-17.578125,0.0,0
1586278831.8289914,120,3,-14.16015625,-43.45703125,-38.0859375,-7.32421875,0.0,0
1586278831.8328977,120,3,-6.34765625,-47.8515625,-26.85546875,2.44140625,0.0,0
1586278831.836804,120,3,-2.44140625,-23.92578125,-0.9765625,4.39453125,0.0,0
1586278831.8407102,120,3,-10.25390625,-17.578125,-4.8828125,-4.8828125,0.0,0
1586278831.8446164,120,3,-19.53125,-17.08984375,-37.59765625,-15.13671875,0.0,0
1586278831.8485227,120,3,-5.37109375,-20.01953125,-34.66796875,-11.23046875,0.0,0
1586278831.852429,120,3,0.48828125,-25.390625,-46.875,-9.765625,0.0,0
1586278831.8563352,120,3,-7.32421875,-31.73828125,-60.05859375,4.39453125,0.0,0
1586278831.8602414,120,3,-7.8125,-24.90234375,-42.96875,1.46484375,0.0,0
1586278831.8641477,120,3,-18.06640625,-20.99609375,-41.9921875,-21.97265625,0.0,0
1586278831.868054,120,3,-20.01953125,-37.109375,-42.48046875,-22.4609375,0.0,0
1586278831.8719602,120,3,-8.7890625,-56.640625,-43.9453125,-7.8125,0.0,0
1586278831.8758664,120,3,-0.48828125,-44.921875,-39.55078125,2.44140625,0.0,0
1586278831.8797727,120,3,-3.41796875,-17.08984375,-20.99609375,-1.46484375,0.0,0
1586278831.883679,120,3,-7.8125,-18.06640625,-23.92578125,-15.625,0.0,0
1586278831.8875852,120,3,-5.37109375,-16.11328125,-40.0390625,-18.06640625,0.0,0
1586278831.8914914,120,3,-1.46484375,-23.4375,-38.57421875,-11.23046875,0.0,0
1586278831.8953977,120,3,0.9765625,-25.87890625,-40.52734375,-5.859375,0.0,0
1586278831.899304,120,3,0.0,-21.97265625,-43.45703125,-6.8359375,0.0,0
1586278831.9032102,120,3,-11.23046875,-37.59765625,-33.203125,-19.04296875,0.0,0
1586278831.9071164,120,3,-12.20703125,-38.0859375,-55.17578125,-16.6015625,0.0,0
1586278831.9110227,120,3,-9.765625,-34.66796875,-62.01171875,-6.34765625,0.0,0
1586278831.914929,120,3,-4.39453125,-28.3203125,-29.296875,-3.90625,0.0,0
1586278831.9188352,120,3,-3.90625,-27.83203125,-24.90234375,-3.41796875,0.0,0
1586278831.9227414,120,3,-18.06640625,-46.38671875,-24.4140625,-12.20703125,0.0,0
1586278831.9266477,120,3,-21.484375,-51.26953125,-15.625,-21.97265625,0.0,0
1586278831.930554,120,3,-13.671875,-27.83203125,-12.6953125,-10.25390625,0.0,0
1586278831.9344602,120,3,-5.859375,-10.7421875,-5.859375,11.71875,0.0,0
1586278831.9383664,120,3,-12.20703125,-38.57421875,-35.15625,4.8828125,0.0,0
1586278831.9422727,120,3,-17.08984375,-37.59765625,-45.8984375,-11.23046875,0.0,0
1586278831.946179,120,3,-10.7421875,-3.90625,-36.62109375,-11.23046875,0.0,0
1586278831.9500852,120,3,-8.30078125,-11.71875,-31.25,-6.34765625,0.0,0
1586278831.9539914,120,3,-4.39453125,-23.92578125,-18.5546875,3.90625,0.0,0
1586278831.9578977,120,3,-7.32421875,-35.64453125,-30.2734375,3.41796875,0.0,0
1586278831.961804,120,3,-18.5546875,-40.0390625,-21.97265625,-11.71875,0.0,0
1586278831.9657102,120,3,-21.97265625,-29.296875,-35.64453125,-15.625,0.0,0
1586278831.9696164,120,3,-17.08984375,-26.3671875,-50.29296875,-10.25390625,0.0,0
1586278831.9735227,120,3,-13.671875,-27.83203125,-26.85546875,-6.8359375,0.0,0
1586278831.977429,120,3,-17.578125,-28.80859375,-37.59765625,-0.9765625,0.0,0
1586278831.9813352,120,3,-14.16015625,-26.85546875,-26.3671875,-9.27734375,0.0,0
1586278831.9852414,120,3,-9.27734375,-31.25,-16.6015625,-19.53125,0.0,0
1586278831.9891477,120,3,-4.39453125,-31.25,-33.203125,-21.484375,0.0,0
1586278831.993054,120,3,-1.953125,-36.62109375,-46.38671875,-6.34765625,0.0,0
1586278831.9969602,120,3,-3.41796875,-26.3671875,-56.15234375,6.34765625,0.0,0
1586278832.0008664,120,3,-3.90625,0.9765625,-44.921875,-0.48828125,0.0,0
1586278832.0047727,120,3,-9.765625,-6.8359375,-29.78515625,-24.90234375,0.0,0
1586278832.008679,120,3,-15.13671875,-33.69140625,-20.5078125,-28.3203125,0.0,0
1586278832.0125852,120,3,-8.7890625,-38.57421875,-10.7421875,-13.18359375,0.0,0
1586278832.0164914,120,3,-1.953125,-25.390625,-10.7421875,-4.8828125,0.0,0
1586278832.0203977,120,3,-10.25390625,-25.87890625,-27.34375,-12.6953125,0.0,0
1586278832.024304,120,3,-20.99609375,-24.4140625,-41.9921875,-33.69140625,0.0,0
1586278832.0282102,120,3,-16.11328125,-30.2734375,-27.34375,-36.1328125,0.0,0
1586278832.0321164,120,3,-10.7421875,-44.921875,-17.578125,-15.13671875,0.0,0
1586278832.0360227,120,3,-17.08984375,-41.015625,-31.73828125,-10.25390625,0.0,0
1586278832.039929,120,3,-22.94921875,-14.6484375,-36.62109375,-19.53125,0.0,0
1586278832.0438352,120,3,-33.203125,-4.39453125,-40.0390625,-26.85546875,0.0,0
1586278832.0477414,120,3,-44.43359375,-22.4609375,-30.2734375,-32.71484375,0.0,0
1586278832.0516477,120,3,-34.1796875,-34.66796875,-12.20703125,-21.97265625,0.0,0
1586278832.055554,120,3,-20.01953125,-41.015625,-13.671875,-5.37109375,0.0,0
1586278832.0594602,120,3,-18.06640625,-36.62109375,-29.296875,-7.32421875,0.0,0
1586278832.0633664,120,3,-24.4140625,-30.2734375,-19.04296875,-21.484375,0.0,0
1586278832.0672727,120,3,-13.671875,-27.34375,-2.9296875,-21.97265625,0.0,0
1586278832.071179,120,3,1.953125,-34.1796875,-19.53125,-6.8359375,0.0,0
1586278832.0750852,120,3,1.46484375,-32.2265625,-19.04296875,4.39453125,0.0,0
1586278832.0789914,120,3,2.44140625,-19.04296875,2.9296875,-3.41796875,0.0,0
1586278832.0828977,120,3,-4.8828125,-26.3671875,1.953125,-17.08984375,0.0,0
1586278832.086804,120,3,-12.20703125,-26.85546875,-16.11328125,-20.5078125,0.0,0
1586278832.0907102,120,3,-10.25390625,-26.85546875,-54.6875,-11.71875,0.0,0
1586278832.0946164,120,3,-13.18359375,-37.59765625,-62.5,-0.48828125,0.0,0
1586278832.0985227,120,3,-16.6015625,-26.85546875,-30.76171875,-10.25390625,0.0,0
1586278832.102429,120,3,-25.87890625,-6.8359375,-24.90234375,-29.78515625,0.0,0
1586278832.1063352,120,3,-32.2265625,-12.20703125,-20.99609375,-45.41015625,0.0,0
1586278832.1102414,120,3,-26.85546875,-19.04296875,-9.765625,-43.9453125,0.0,0
1586278832.1141477,120,3,-19.53125,-17.08984375,-16.11328125,-25.390625,0.0,0
1586278832.118054,120,3,-23.92578125,-12.20703125,-31.25,-22.4609375,0.0,0
1586278832.1219602,120,3,-36.1328125,-25.390625,-43.45703125,-38.0859375,0.0,0
1586278832.1258664,120,3,-35.15625,-45.8984375,-42.48046875,-42.48046875,0.0,0
1586278832.1297727,120,3,-28.3203125,-28.3203125,-23.92578125,-30.2734375,0.0,0
1586278832.133679,120,3,-25.87890625,-15.13671875,-55.6640625,-8.7890625,0.0,0
1586278832.1375852,120,3,-24.90234375,-22.4609375,-48.33984375,-8.7890625,0.0,0
1586278832.1414914,120,3,-30.2734375,-47.36328125,-35.15625,-26.3671875,0.0,0
1586278832.1453977,120,3,-29.296875,-59.5703125,-41.9921875,-24.90234375,0.0,0
1586278832.149304,120,3,-19.04296875,-52.734375,-6.8359375,-15.13671875,0.0,0
1586278832.1532102,120,3,-9.27734375,-32.2265625,-0.9765625,0.48828125,0.0,0
1586278832.1571164,120,3,-8.7890625,-15.13671875,-3.41796875,12.20703125,0.0,0
1586278832.1610227,120,3,-15.625,-19.53125,-11.71875,1.953125,0.0,0
1586278832.164929,120,3,-12.20703125,-21.484375,-4.8828125,-5.859375,0.0,0
1586278832.1688352,120,3,-13.18359375,-22.4609375,-9.27734375,-10.7421875,0.0,0
1586278832.1727414,120,3,-17.08984375,-10.7421875,-41.50390625,-16.11328125,0.0,0
1586278832.1766477,120,3,-24.4140625,-0.48828125,-62.01171875,-5.37109375,0.0,0
1586278832.180554,120,3,-40.52734375,-13.18359375,-50.78125,-7.8125,0.0,0
1586278832.1844602,120,3,-45.8984375,-36.62109375,-19.04296875,-31.73828125,0.0,0
1586278832.1883664,120,3,-35.64453125,-43.9453125,-24.90234375,-27.34375,0.0,0
1586278832.1922727,120,3,-30.76171875,-40.52734375,-56.640625,-8.7890625,0.0,0
1586278832.196179,120,3,-25.390625,-28.3203125,-58.59375,-7.32421875,0.0,0
1586278832.2000852,120,3,-16.6015625,-26.85546875,-20.01953125,-3.90625,0.0,0
1586278832.2039914,120,3,-29.296875,-37.109375,0.48828125,-33.203125,0.0,0
1586278832.2078977,120,3,-39.55078125,-32.2265625,-15.625,-52.734375,0.0,0
1586278832.211804,120,3,-37.59765625,-32.2265625,-18.06640625,-28.3203125,0.0,0
1586278832.2157102,120,3,-35.64453125,-38.57421875,0.0,-12.20703125,0.0,0
1586278832.2196164,120,3,-40.0390625,-16.11328125,-3.90625,-24.90234375,0.0,0
1586278832.2235227,120,3,-53.7109375,-2.9296875,-20.5078125,-54.6875,0.0,0
1586278832.227429,120,3,-56.15234375,-11.71875,-19.53125,-56.15234375,0.0,0
1586278832.2313352,120,3,-52.734375,-14.16015625,-16.6015625,-39.0625,0.0,0
1586278832.2352414,120,3,-49.8046875,-33.203125,-35.15625,-28.80859375,0.0,0
1586278832.2391477,120,3,-47.36328125,-37.59765625,-30.2734375,-31.73828125,0.0,0
1586278832.243054,120,3,-54.6875,-25.87890625,0.9765625,-49.8046875,0.0,0
1586278832.2469602,120,3,-46.875,-20.5078125,-28.80859375,-47.8515625,0.0,0
1586278832.2508664,120,3,-38.0859375,-20.01953125,-46.875,-34.1796875,0.0,0
1586278832.2547727,120,3,-39.0625,-18.5546875,-27.83203125,-18.06640625,0.0,0
1586278832.258679,120,3,-37.109375,-27.83203125,-24.4140625,-9.765625,0.0,0
1586278832.2625852,120,3,-49.31640625,-48.33984375,-7.32421875,-32.2265625,0.0,0
1586278832.2664914,120,3,-56.15234375,-30.76171875,4.8828125,-50.78125,0.0,0
1586278832.2703977,120,3,-41.50390625,-12.20703125,-8.30078125,-40.52734375,0.0,0
1586278832.274304,120,3,-41.9921875,-25.87890625,-29.78515625,-30.76171875,0.0,0
1586278832.2782102,120,3,-49.8046875,-43.9453125,-36.62109375,-31.73828125,0.0,0
1586278832.2821164,120,3,-51.7578125,-57.6171875,-33.203125,-39.0625,0.0,0
1586278832.2860227,120,3,-45.41015625,-44.43359375,-27.83203125,-41.9921875,0.0,0
1586278832.289929,120,3,-34.66796875,-34.1796875,-18.06640625,-27.34375,0.0,0
1586278832.2938352,120,3,-29.296875,-30.2734375,-8.30078125,-6.34765625,0.0,0
1586278832.2977414,120,3,-27.34375,-21.97265625,-20.5078125,-13.18359375,0.0,0
1586278832.3016477,120,3,-33.69140625,-8.7890625,-9.765625,-33.203125,0.0,0
1586278832.305554,120,3,-35.64453125,-2.9296875,-8.7890625,-39.55078125,0.0,0
1586278832.3094602,120,3,-27.83203125,-26.3671875,-35.15625,-32.71484375,0.0,0
1586278832.3133664,120,3,-20.5078125,-54.6875,-37.109375,-7.8125,0.0,0
1586278832.3172727,120,3,-21.97265625,-34.1796875,-20.01953125,-8.30078125,0.0,0
1586278832.321179,120,3,-30.76171875,-3.41796875,-16.6015625,-28.3203125,0.0,0
1586278832.3250852,120,3,-40.0390625,-23.4375,-30.2734375,-39.0625,0.0,0
1586278832.3289914,120,3,-34.66796875,-27.34375,-20.99609375,-38.0859375,0.0,0
1586278832.3328977,120,3,-30.76171875,-17.578125,-20.99609375,-27.34375,0.0,0
1586278832.336804,120,3,-29.296875,-23.92578125,-29.78515625,-24.90234375,0.0,0
1586278832.3407102,120,3,-23.92578125,-22.4609375,-33.203125,-22.4609375,0.0,0
1586278832.3446164,120,3,-26.3671875,-24.90234375,-37.59765625,-26.85546875,0.0,0
1586278832.3485227,120,3,-22.94921875,-23.92578125,-18.5546875,-31.25,0.0,0
1586278832.352429,120,3,-15.625,-30.76171875,-12.6953125,-17.08984375,0.0,0
1586278832.3563352,120,3,-15.625,-39.0625,-26.3671875,-10.7421875,0.0,0
1586278832.3602414,120,3,-21.97265625,-41.50390625,-41.015625,-24.4140625,0.0,0
1586278832.3641477,120,3,-24.90234375,-25.390625,-23.4375,-37.59765625,0.0,0
1586278832.368054,120,3,-23.92578125,-11.23046875,-25.87890625,-39.0625,0.0,0
1586278832.3719602,120,3,-27.34375,-22.94921875,-31.73828125,-25.390625,0.0,0
1586278832.3758664,120,3,-26.3671875,-16.6015625,-31.25,-20.01953125,0.0,0
1586278832.3797727,120,3,-30.76171875,-18.06640625,-20.01953125,-30.2734375,0.0,0
1586278832.383679,120,3,-41.50390625,-40.0390625,-10.25390625,-39.0625,0.0,0
1586278832.3875852,120,3,-41.9921875,-52.734375,-31.73828125,-31.73828125,0.0,0
1586278832.3914914,120,3,-38.0859375,-38.57421875,-36.62109375,-23.4375,0.0,0
1586278832.3953977,120,3,-35.64453125,-29.296875,-28.3203125,-19.53125,0.0,0
1586278832.399304,120,3,-35.15625,-43.45703125,-35.15625,-20.5078125,0.0,0
1586278832.4032102,120,3,-40.52734375,-39.0625,-19.53125,-31.73828125,0.0,0
1586278832.4071164,120,3,-42.96875,-22.94921875,-4.39453125,-34.66796875,0.0,0
1586278832.4110227,120,3,-38.0859375,-9.27734375,-17.08984375,-20.99609375,0.0,0
1586278832.414929,120,3,-29.296875,-10.7421875,-29.78515625,-11.23046875,0.0,0
1586278832.4188352,120,3,-34.1796875,-31.73828125,-23.4375,-18.5546875,0.0,0
1586278832.4227414,120,3,-33.69140625,-27.83203125,-21.484375,-28.3203125,0.0,0
1586278832.4266477,120,3,-34.66796875,-21.97265625,-26.3671875,-41.015625,0.0,0
1586278832.430554,120,3,-40.52734375,-43.45703125,-14.16015625,-40.0390625,0.0,0
1586278832.4344602,120,3,-35.64453125,-50.78125,-7.32421875,-28.3203125,0.0,0
1586278832.4383664,120,3,-41.9921875,-50.29296875,-35.64453125,-37.59765625,0.0,0
1586278832.4422727,120,3,-49.8046875,-40.52734375,-58.10546875,-49.8046875,0.0,0
1586278832.446179,120,3,-41.9921875,-11.71875,-20.99609375,-42.48046875,0.0,0
1586278832.4500852,120,3,-29.296875,-13.18359375,1.953125,-29.78515625,0.0,0
1586278832.4539914,120,3,-24.90234375,-15.625,-20.5078125,-22.4609375,0.0,0
1586278832.4578977,120,3,-22.94921875,-14.6484375,-49.8046875,-20.99609375,0.0,0
1586278832.461804,120,3,-19.04296875,-6.8359375,-43.45703125,-33.69140625,0.0,0
1586278832.4657102,120,3,-20.5078125,-12.20703125,-61.5234375,-39.55078125,0.0,0
1586278832.4696164,120,3,-20.01953125,-40.0390625,-56.640625,-31.73828125,0.0,0
1586278832.4735227,120,3,-15.13671875,-37.109375,-16.6015625,-2.9296875,0.0,0
1586278832.477429,120,3,-18.06640625,-34.1796875,-12.20703125,10.7421875,0.0,0
1586278832.4813352,120,3,-29.78515625,-41.015625,-14.6484375,-18.06640625,0.0,0
1586278832.4852414,120,3,-33.203125,-40.0390625,-19.04296875,-23.4375,0.0,0
1586278832.4891477,120,3,-31.73828125,-43.45703125,-18.06640625,-12.6953125,0.0,0
1586278832.493054,120,3,-25.87890625,-58.59375,-25.390625,-1.46484375,0.0,0
1586278832.4969602,120,3,-26.3671875,-41.015625,-21.484375,10.7421875,0.0,0
1586278832.5008664,120,3,-36.1328125,-14.16015625,-31.25,-8.30078125,0.0,0
1586278832.5047727,120,3,-36.1328125,-21.97265625,-48.828125,-30.2734375,0.0,0
1586278832.508679,120,3,-25.390625,-18.06640625,-31.73828125,-25.87890625,0.0,0
1586278832.5125852,120,3,-18.5546875,-18.5546875,-16.6015625,-9.27734375,0.0,0
1586278832.5164914,120,3,-18.5546875,-36.62109375,-9.27734375,-4.8828125,0.0,0
1586278832.5203977,120,3,-24.4140625,-49.8046875,-20.01953125,-17.08984375,0.0,0
1586278832.524304,120,3,-32.71484375,-34.1796875,-25.390625,-29.78515625,0.0,0
1586278832.5282102,120,3,-28.3203125,-32.2265625,-17.08984375,-29.296875,0.0,0
1586278832.5321164,120,3,-22.4609375,-47.36328125,-30.76171875,-14.6484375,0.0,0
1586278832.5360227,120,3,-22.94921875,-29.296875,-62.98828125,-3.90625,0.0,0
1586278832.539929,120,3,-26.85546875,-18.06640625,-67.87109375,-13.18359375,0.0,0
1586278832.5438352,120,3,-36.1328125,-20.99609375,-41.9921875,-36.62109375,0.0,0
1586278832.5477414,120,3,-38.0859375,-32.71484375,-40.0390625,-46.875,0.0,0
1586278832.5516477,120,3,-31.73828125,-47.8515625,-13.18359375,-32.2265625,0.0,0
1586278832.555554,120,3,-23.92578125,-42.48046875,-18.06640625,-21.97265625,0.0,0
1586278832.5594602,120,3,-30.2734375,-24.90234375,-68.84765625,-35.15625,0.0,0
1586278832.5633664,120,3,-33.203125,-31.73828125,-61.03515625,-38.0859375,0.0,0
1586278832.5672727,120,3,-26.85546875,-41.50390625,-31.25,-30.2734375,0.0,0
1586278832.571179,120,3,-25.390625,-24.4140625,-23.92578125,-23.4375,0.0,0
1586278832.5750852,120,3,-14.6484375,-24.90234375,-25.390625,-15.13671875,0.0,0
1586278832.5789914,120,3,-18.5546875,-30.2734375,-34.66796875,-9.765625,0.0,0
1586278832.5828977,120,3,-30.2734375,-38.57421875,-36.62109375,-21.97265625,0.0,0
1586278832.586804,120,3,-23.92578125,-39.0625,-39.0625,-29.78515625,0.0,0
1586278832.5907102,120,3,-11.23046875,-36.1328125,-46.875,-10.25390625,0.0,0
1586278832.5946164,120,3,-0.9765625,-33.69140625,-23.4375,0.9765625,0.0,0
1586278832.5985227,120,3,-8.7890625,-26.85546875,-0.9765625,-1.953125,0.0,0
1586278832.602429,120,3,-28.3203125,-24.4140625,-25.87890625,-20.01953125,0.0,0
1586278832.6063352,120,3,-35.64453125,-36.1328125,-48.828125,-40.0390625,0.0,0
1586278832.6102414,120,3,-28.80859375,-38.0859375,-41.015625,-26.85546875,0.0,0
1586278832.6141477,120,3,-31.25,-19.04296875,-64.453125,-12.20703125,0.0,0
1586278832.618054,120,3,-41.9921875,-21.484375,-67.3828125,-21.97265625,0.0,0
1586278832.6219602,120,3,-44.921875,-41.015625,-47.8515625,-30.2734375,0.0,0
1586278832.6258664,120,3,-43.9453125,-39.55078125,-42.96875,-26.85546875,0.0,0
1586278832.6297727,120,3,-41.9921875,-46.875,-41.015625,-21.97265625,0.0,0
1586278832.633679,120,3,-25.87890625,-56.640625,-28.3203125,-14.6484375,0.0,0
1586278832.6375852,120,3,-14.6484375,-32.71484375,-20.5078125,-8.7890625,0.0,0
1586278832.6414914,120,3,-15.625,-16.11328125,-18.06640625,-19.04296875,0.0,0
1586278832.6453977,120,3,-15.13671875,-23.4375,-1.953125,-30.2734375,0.0,0
1586278832.649304,120,3,-15.13671875,-22.4609375,-13.671875,-20.99609375,0.0,0
1586278832.6532102,120,3,-11.23046875,-17.578125,-33.69140625,-9.765625,0.0,0
1586278832.6571164,120,3,-11.71875,-24.4140625,-31.73828125,-16.11328125,0.0,0
1586278832.6610227,120,3,-21.484375,-33.69140625,-50.78125,-30.76171875,0.0,0
1586278832.664929,120,3,-26.85546875,-36.1328125,-56.15234375,-38.0859375,0.0,0
1586278832.6688352,120,3,-26.85546875,-35.64453125,-57.6171875,-31.25,0.0,0
1586278832.6727414,120,3,-21.97265625,-32.2265625,-57.6171875,-11.71875,0.0,0
1586278832.6766477,120,3,-18.06640625,-12.20703125,-20.99609375,-0.9765625,0.0,0
1586278832.680554,120,3,-24.4140625,-12.20703125,-18.5546875,-14.6484375,0.0,0
1586278832.6844602,120,3,-24.4140625,-24.90234375,-27.83203125,-20.5078125,0.0,0
1586278832.6883664,120,3,-15.625,-14.6484375,-17.578125,-8.30078125,0.0,0
1586278832.6922727,120,3,-11.71875,-12.20703125,-18.06640625,-1.953125,0.0,0
1586278832.696179,120,3,-17.578125,-30.2734375,-29.78515625,-4.8828125,0.0,0
1586278832.7000852,120,3,-32.71484375,-46.875,-35.64453125,-20.5078125,0.0,0
1586278832.7039914,120,3,-42.96875,-39.0625,-42.96875,-42.48046875,0.0,0
1586278832.7078977,120,3,-34.66796875,-33.203125,-43.9453125,-47.8515625,0.0,0
1586278832.711804,120,3,-26.85546875,-26.85546875,-54.6875,-34.1796875,0.0,0
1586278832.7157102,120,3,-28.3203125,-20.99609375,-44.921875,-25.87890625,0.0,0
1586278832.7196164,120,3,-22.4609375,-12.6953125,-10.25390625,-18.06640625,0.0,0
1586278832.7235227,120,3,-21.484375,-2.44140625,-9.27734375,-23.4375,0.0,0
1586278832.727429,120,3,-26.3671875,-32.2265625,-43.45703125,-27.83203125,0.0,0
1586278832.7313352,120,3,-24.4140625,-43.45703125,-43.9453125,-17.08984375,0.0,0
1586278832.7352414,120,3,-12.20703125,-21.484375,-27.34375,-2.44140625,0.0,0
1586278832.7391477,120,3,-11.71875,-26.85546875,-25.390625,2.44140625,0.0,0
1586278832.743054,120,3,-28.3203125,-34.66796875,-0.9765625,-13.18359375,0.0,0
1586278832.7469602,120,3,-28.3203125,-35.15625,-6.8359375,-28.80859375,0.0,0
1586278832.7508664,120,3,-19.04296875,-24.90234375,-11.23046875,-23.92578125,0.0,0
1586278832.7547727,120,3,-22.4609375,-31.73828125,-3.90625,-8.30078125,0.0,0
1586278832.758679,120,3,-30.2734375,-39.55078125,-26.85546875,-11.23046875,0.0,0
1586278832.7625852,120,3,-33.203125,-13.671875,-29.78515625,-19.53125,0.0,0
1586278832.7664914,120,3,-36.62109375,-11.23046875,-11.71875,-25.87890625,0.0,0
1586278832.7703977,120,3,-34.1796875,-30.76171875,-29.78515625,-29.78515625,0.0,0
1586278832.774304,120,3,-25.390625,-34.66796875,-54.19921875,-24.4140625,0.0,0
1586278832.7782102,120,3,-25.390625,-37.59765625,-35.64453125,-17.08984375,0.0,0
1586278832.7821164,120,3,-27.34375,-50.29296875,-20.5078125,-19.53125,0.0,0
1586278832.7860227,120,3,-27.83203125,-50.78125,-12.20703125,-21.97265625,0.0,0
1586278832.789929,120,3,-20.99609375,-28.3203125,10.7421875,-13.671875,0.0,0
1586278832.7938352,120,3,-12.20703125,-10.7421875,11.71875,-8.30078125,0.0,0
1586278832.7977414,120,3,-17.578125,-16.11328125,-21.484375,-14.16015625,0.0,0
1586278832.8016477,120,3,-25.87890625,-18.06640625,-50.78125,-22.4609375,0.0,0
1586278832.805554,120,3,-29.78515625,-16.11328125,-44.921875,-24.4140625,0.0,0
1586278832.8094602,120,3,-26.85546875,-29.78515625,-22.94921875,-15.13671875,0.0,0
1586278832.8133664,120,3,-18.5546875,-31.73828125,-14.6484375,-3.90625,0.0,0
1586278832.8172727,120,3,-11.23046875,-24.90234375,-12.6953125,0.9765625,0.0,0
1586278832.821179,120,3,-12.20703125,-20.5078125,-26.85546875,-6.8359375,0.0,0
1586278832.8250852,120,3,-15.625,-19.53125,-34.1796875,-19.04296875,0.0,0
1586278832.8289914,120,3,-14.6484375,-28.3203125,-24.4140625,-18.5546875,0.0,0
1586278832.8328977,120,3,-12.6953125,-38.0859375,-7.8125,-8.7890625,0.0,0
1586278832.836804,120,3,-13.18359375,-44.43359375,-20.99609375,-6.8359375,0.0,0
1586278832.8407102,120,3,-20.99609375,-39.55078125,-42.96875,-20.5078125,0.0,0
1586278832.8446164,120,3,-22.4609375,-31.25,-30.2734375,-24.90234375,0.0,0
1586278832.8485227,120,3,-22.94921875,-31.25,-25.87890625,-15.625,0.0,0
1586278832.852429,120,3,-20.5078125,-19.53125,-19.53125,0.0,0.0,0
1586278832.8563352,120,3,-17.08984375,-17.08984375,-8.30078125,2.44140625,0.0,0
1586278832.8602414,120,3,-24.90234375,-45.41015625,-34.1796875,-12.6953125,0.0,0
1586278832.8641477,120,3,-27.83203125,-51.26953125,-40.52734375,-25.390625,0.0,0
1586278832.868054,120,3,-23.4375,-34.66796875,-25.87890625,-23.92578125,0.0,0
1586278832.8719602,120,3,-18.06640625,-22.4609375,-27.34375,-7.32421875,0.0,0
1586278832.8758664,120,3,-11.71875,-23.92578125,-15.13671875,-3.41796875,0.0,0
1586278832.8797727,120,3,-15.13671875,-29.78515625,-32.2265625,-19.53125,0.0,0
1586278832.883679,120,3,-25.87890625,-33.69140625,-52.24609375,-28.80859375,0.0,0
1586278832.8875852,120,3,-29.296875,-35.15625,-47.8515625,-25.390625,0.0,0
1586278832.8914914,120,3,-22.94921875,-34.1796875,-31.25,-6.8359375,0.0,0
1586278832.8953977,120,3,-15.625,-31.73828125,-33.69140625,15.625,0.0,0
1586278832.899304,120,3,-21.97265625,-45.41015625,-34.1796875,6.8359375,0.0,0
1586278832.9032102,120,3,-33.203125,-55.17578125,-23.4375,-23.92578125,0.0,0
1586278832.9071164,120,3,-30.2734375,-23.4375,-36.1328125,-29.78515625,0.0,0
1586278832.9110227,120,3,-22.94921875,-9.27734375,-42.96875,-18.5546875,0.0,0
1586278832.914929,120,3,-22.4609375,-20.5078125,-32.2265625,-9.27734375,0.0,0
1586278832.9188352,120,3,-22.94921875,-22.94921875,-21.484375,-5.859375,0.0,0
1586278832.9227414,120,3,-27.34375,-29.78515625,-24.4140625,-18.06640625,0.0,0
1586278832.9266477,120,3,-36.62109375,-41.9921875,-46.38671875,-27.83203125,0.0,0
1586278832.930554,120,3,-28.80859375,-32.2265625,-54.6875,-25.390625,0.0,0
1586278832.9344602,120,3,-26.3671875,-25.87890625,-51.7578125,-18.06640625,0.0,0
1586278832.9383664,120,3,-33.203125,-35.64453125,-39.55078125,-17.578125,0.0,0
1586278832.9422727,120,3,-41.015625,-30.76171875,-17.578125,-36.1328125,0.0,0
1586278832.946179,120,3,-41.015625,-36.62109375,-18.06640625,-43.9453125,0.0,0
1586278832.9500852,120,3,-35.15625,-31.25,-28.3203125,-37.109375,0.0,0
1586278832.9539914,120,3,-30.76171875,-24.90234375,-31.25,-27.34375,0.0,0
1586278832.9578977,120,3,-20.99609375,-31.25,-17.08984375,-16.6015625,0.0,0
1586278832.961804,120,3,-24.4140625,-15.625,-5.859375,-15.13671875,0.0,0
1586278832.9657102,120,3,-37.109375,-11.23046875,-42.48046875,-31.73828125,0.0,0
1586278832.9696164,120,3,-36.62109375,-33.203125,-62.5,-25.87890625,0.0,0
1586278832.9735227,120,3,-28.80859375,-26.3671875,-26.3671875,-3.90625,0.0,0
1586278832.977429,120,3,-32.2265625,-18.5546875,-27.83203125,-14.16015625,0.0,0
1586278832.9813352,120,3,-33.69140625,-29.78515625,-44.43359375,-31.73828125,0.0,0
1586278832.9852414,120,3,-42.48046875,-30.2734375,-32.71484375,-29.78515625,0.0,0
1586278832.9891477,120,3,-40.0390625,-26.85546875,-32.2265625,-31.25,0.0,0
1586278832.993054,120,3,-17.578125,-25.87890625,-39.55078125,-28.3203125,0.0,0
1586278832.9969602,120,3,-14.16015625,-32.2265625,-47.8515625,-18.5546875,0.0,0
1586278833.0008664,120,3,-21.484375,-37.59765625,-37.59765625,-20.5078125,0.0,0
1586278833.0047727,120,3,-25.390625,-35.64453125,-18.5546875,-29.296875,0.0,0
1586278833.008679,120,3,-17.578125,-13.671875,-31.73828125,-23.4375,0.0,0
1586278833.0125852,120,3,-11.71875,-9.765625,-39.55078125,-16.11328125,0.0,0
1586278833.0164914,120,3,-17.08984375,-33.203125,-56.640625,-14.6484375,0.0,0
1586278833.0203977,120,3,-23.92578125,-46.875,-44.43359375,-11.23046875,0.0,0
1586278833.024304,120,3,-23.4375,-49.31640625,-26.85546875,-18.5546875,0.0,0
1586278833.0282102,120,3,-20.5078125,-31.25,-30.2734375,-15.13671875,0.0,0
1586278833.0321164,120,3,-16.11328125,-15.625,-29.78515625,1.953125,0.0,0
1586278833.0360227,120,3,-15.13671875,-24.4140625,-31.25,4.39453125,0.0,0
1586278833.039929,120,3,-15.625,-11.71875,-15.625,-5.859375,0.0,0
1586278833.0438352,120,3,-15.625,-19.53125,-8.7890625,-15.13671875,0.0,0
1586278833.0477414,120,3,-17.08984375,-55.6640625,-32.2265625,-20.5078125,0.0,0
1586278833.0516477,120,3,-21.97265625,-35.64453125,-40.0390625,-10.25390625,0.0,0
1586278833.055554,120,3,-35.64453125,-17.578125,-34.1796875,-8.30078125,0.0,0
1586278833.0594602,120,3,-56.15234375,-34.1796875,-22.94921875,-16.6015625,0.0,0
1586278833.0633664,120,3,-57.12890625,-38.0859375,-23.92578125,-32.71484375,0.0,0
1586278833.0672727,120,3,-37.109375,-30.76171875,-42.96875,-44.921875,0.0,0
1586278833.071179,120,3,-20.5078125,-14.16015625,-25.87890625,-29.78515625,0.0,0
1586278833.0750852,120,3,-14.16015625,-17.08984375,-21.97265625,-15.13671875,0.0,0
1586278833.0789914,120,3,-21.484375,-38.57421875,-41.9921875,-27.34375,0.0,0
1586278833.0828977,120,3,-22.4609375,-19.53125,-27.34375,-30.76171875,0.0,0
1586278833.086804,120,3,-14.16015625,6.34765625,-4.39453125,-19.04296875,0.0,0
1586278833.0907102,120,3,-8.30078125,-4.39453125,-13.671875,-11.71875,0.0,0
1586278833.0946164,120,3,-9.27734375,-35.64453125,-16.11328125,-4.8828125,0.0,0
1586278833.0985227,120,3,-13.18359375,-46.875,-32.2265625,-13.18359375,0.0,0
1586278833.102429,120,3,-22.94921875,-36.1328125,-40.52734375,-36.1328125,0.0,0
1586278833.1063352,120,3,-33.203125,-26.85546875,-37.109375,-41.015625,0.0,0
1586278833.1102414,120,3,-26.3671875,-22.4609375,-44.921875,-29.78515625,0.0,0
1586278833.1141477,120,3,-12.20703125,-29.78515625,-29.78515625,-13.671875,0.0,0
1586278833.118054,120,3,-19.04296875,-28.80859375,-30.76171875,-14.16015625,0.0,0
1586278833.1219602,120,3,-30.2734375,-16.11328125,-42.96875,-37.59765625,0.0,0
1586278833.1258664,120,3,-31.25,-22.94921875,-26.85546875,-41.015625,0.0,0
1586278833.1297727,120,3,-39.0625,-36.1328125,-26.3671875,-24.90234375,0.0,0
1586278833.133679,120,3,-37.59765625,-37.59765625,-21.97265625,-5.859375,0.0,0
1586278833.1375852,120,3,-14.16015625,-29.78515625,1.46484375,1.953125,0.0,0
1586278833.1414914,120,3,-12.6953125,-17.08984375,18.5546875,-21.97265625,0.0,0
1586278833.1453977,120,3,-20.5078125,-19.04296875,0.9765625,-34.1796875,0.0,0
1586278833.149304,120,3,-23.4375,-23.4375,-18.5546875,-23.4375,0.0,0
1586278833.1532102,120,3,-23.4375,-20.99609375,-39.55078125,-4.39453125,0.0,0
1586278833.1571164,120,3,-17.578125,-44.921875,-55.17578125,-5.37109375,0.0,0
1586278833.1610227,120,3,-16.11328125,-58.10546875,-21.484375,-21.484375,0.0,0
1586278833.164929,120,3,-23.4375,-30.76171875,-14.16015625,-31.25,0.0,0
1586278833.1688352,120,3,-17.08984375,-15.13671875,-36.1328125,-25.390625,0.0,0
1586278833.1727414,120,3,-7.32421875,-20.01953125,-34.66796875,-5.859375,0.0,0
1586278833.1766477,120,3,-9.765625,-25.87890625,-28.80859375,-6.34765625,0.0,0
1586278833.180554,120,3,-30.2734375,-27.83203125,-18.06640625,-11.23046875,0.0,0
1586278833.1844602,120,3,-37.109375,-26.3671875,-4.8828125,-21.97265625,0.0,0
1586278833.1883664,120,3,-19.53125,-17.08984375,-26.3671875,-25.390625,0.0,0
1586278833.1922727,120,3,-14.6484375,-24.90234375,-52.24609375,-4.39453125,0.0,0
1586278833.196179,120,3,-18.5546875,-42.96875,-50.78125,-5.37109375,0.0,0
1586278833.2000852,120,3,-27.34375,-45.8984375,-33.203125,-25.390625,0.0,0
1586278833.2039914,120,3,-35.64453125,-19.04296875,-20.99609375,-39.0625,0.0,0
1586278833.2078977,120,3,-38.0859375,-14.16015625,-11.23046875,-30.76171875,0.0,0
1586278833.211804,120,3,-33.203125,-38.0859375,-21.484375,-15.13671875,0.0,0
1586278833.2157102,120,3,-29.296875,-42.48046875,-33.69140625,-13.671875,0.0,0
1586278833.2196164,120,3,-28.80859375,-32.71484375,-38.0859375,-23.92578125,0.0,0
1586278833.2235227,120,3,-27.34375,-28.3203125,-44.43359375,-36.62109375,0.0,0
1586278833.227429,120,3,-22.4609375,-22.4609375,-12.20703125,-25.390625,0.0,0
1586278833.2313352,120,3,-19.04296875,-19.04296875,10.25390625,-10.25390625,0.0,0
1586278833.2352414,120,3,-22.94921875,-38.0859375,-17.08984375,-9.765625,0.0,0
1586278833.2391477,120,3,-31.25,-50.78125,-27.34375,-11.71875,0.0,0
1586278833.243054,120,3,-42.48046875,-38.57421875,-27.34375,-29.296875,0.0,0
1586278833.2469602,120,3,-44.43359375,-29.78515625,-23.4375,-39.55078125,0.0,0
1586278833.2508664,120,3,-41.9921875,-41.50390625,-29.296875,-35.64453125,0.0,0
1586278833.2547727,120,3,-46.38671875,-42.96875,-41.50390625,-28.3203125,0.0,0
1586278833.258679,120,3,-38.57421875,-27.83203125,-27.34375,-31.25,0.0,0
1586278833.2625852,120,3,-20.99609375,-23.4375,-33.203125,-36.1328125,0.0,0
1586278833.2664914,120,3,-22.4609375,-34.1796875,-38.0859375,-29.296875,0.0,0
1586278833.2703977,120,3,-23.4375,-34.1796875,-40.0390625,-27.34375,0.0,0
1586278833.274304,120,3,-21.484375,-26.3671875,-27.34375,-20.99609375,0.0,0
1586278833.2782102,120,3,-24.90234375,-30.2734375,-5.37109375,-16.6015625,0.0,0
1586278833.2821164,120,3,-28.80859375,-36.1328125,-17.578125,-22.94921875,0.0,0
1586278833.2860227,120,3,-24.90234375,-28.3203125,-2.44140625,-25.87890625,0.0,0
1586278833.289929,120,3,-18.5546875,-23.4375,-21.97265625,-11.71875,0.0,0
1586278833.2938352,120,3,-14.6484375,-23.92578125,-35.15625,4.39453125,0.0,0
1586278833.2977414,120,3,-11.71875,-32.2265625,-15.13671875,6.34765625,0.0,0
1586278833.3016477,120,3,-4.8828125,-30.76171875,-27.34375,-3.41796875,0.0,0
1586278833.305554,120,3,-8.7890625,-23.92578125,-17.578125,-11.71875,0.0,0
1586278833.3094602,120,3,-16.11328125,-31.73828125,-22.94921875,-13.18359375,0.0,0
1586278833.3133664,120,3,-15.625,-24.4140625,-34.66796875,-3.90625,0.0,0
1586278833.3172727,120,3,-24.4140625,-27.34375,-35.64453125,-2.9296875,0.0,0
1586278833.321179,120,3,-21.484375,-34.1796875,-25.87890625,-18.5546875,0.0,0
1586278833.3250852,120,3,-28.80859375,-24.4140625,-10.7421875,-25.390625,0.0,0
1586278833.3289914,120,3,-19.04296875,-20.99609375,-27.34375,-10.25390625,0.0,0
1586278833.3328977,120,3,5.859375,-28.3203125,-37.59765625,9.27734375,0.0,0
1586278833.336804,120,3,-4.8828125,-23.4375,-16.6015625,0.9765625,0.0,0
1586278833.3407102,120,3,-12.6953125,-22.94921875,-20.99609375,-15.625,0.0,0
1586278833.3446164,120,3,-22.94921875,-51.26953125,-43.9453125,-30.76171875,0.0,0
1586278833.3485227,120,3,-24.90234375,-34.66796875,-49.31640625,-26.85546875,0.0,0
1586278833.352429,120,3,-12.20703125,-6.34765625,-52.24609375,-2.9296875,0.0,0
1586278833.3563352,120,3,-17.578125,-20.5078125,-41.015625,0.48828125,0.0,0
1586278833.3602414,120,3,-23.4375,-14.6484375,-11.71875,-2.9296875,0.0,0
1586278833.3641477,120,3,-13.671875,-20.5078125,-10.7421875,-4.8828125,0.0,0
1586278833.368054,120,3,-2.9296875,-20.5078125,6.8359375,0.48828125,0.0,0
1586278833.3719602,120,3,3.41796875,-11.71875,-10.25390625,6.34765625,0.0,0
1586278833.3758664,120,3,0.9765625,-28.3203125,-63.4765625,0.9765625,0.0,0
1586278833.3797727,120,3,-10.25390625,-37.109375,-26.3671875,-4.8828125,0.0,0
1586278833.383679,120,3,-15.625,-26.3671875,-6.8359375,-12.6953125,0.0,0
1586278833.3875852,120,3,-20.01953125,-17.578125,-13.671875,-15.13671875,0.0,0
1586278833.3914914,120,3,-27.83203125,-19.04296875,-21.97265625,-8.7890625,0.0,0
1586278833.3953977,120,3,-16.11328125,-39.0625,-44.921875,-9.27734375,0.0,0
1586278833.399304,120,3,-3.41796875,-40.52734375,-42.96875,-9.27734375,0.0,0
1586278833.4032102,120,3,-7.32421875,-30.76171875,-30.76171875,-9.765625,0.0,0
1586278833.4071164,120,3,-22.94921875,-43.45703125,-35.64453125,-19.04296875,0.0,0
1586278833.4110227,120,3,-20.5078125,-32.71484375,-25.87890625,-13.671875,0.0,0
1586278833.414929,120,3,-11.71875,-14.6484375,-8.30078125,-2.44140625,0.0,0
1586278833.4188352,120,3,-27.34375,-27.83203125,-20.5078125,-11.23046875,0.0,0
1586278833.4227414,120,3,-33.69140625,-30.76171875,-29.296875,-20.5078125,0.0,0
1586278833.4266477,120,3,-24.4140625,-23.4375,-24.90234375,-26.3671875,0.0,0
1586278833.430554,120,3,-18.06640625,-31.25,-21.97265625,-16.6015625,0.0,0
1586278833.4344602,120,3,-18.06640625,-41.9921875,-32.2265625,-3.41796875,0.0,0
1586278833.4383664,120,3,-22.4609375,-41.015625,-45.8984375,-17.08984375,0.0,0
1586278833.4422727,120,3,-21.484375,-24.4140625,-59.5703125,-37.59765625,0.0,0
1586278833.446179,120,3,-35.15625,-16.11328125,-47.36328125,-41.50390625,0.0,0
1586278833.4500852,120,3,-28.80859375,-21.484375,-52.734375,-31.25,0.0,0
1586278833.4539914,120,3,-4.8828125,-35.15625,-36.62109375,-20.99609375,0.0,0
1586278833.4578977,120,3,-8.7890625,-43.45703125,6.8359375,-12.6953125,0.0,0
1586278833.461804,120,3,-20.01953125,-42.96875,4.8828125,-20.01953125,0.0,0
1586278833.4657102,120,3,-23.4375,-36.1328125,-1.46484375,-23.92578125,0.0,0
1586278833.4696164,120,3,-22.94921875,-16.6015625,-30.76171875,-13.671875,0.0,0
1586278833.4735227,120,3,-22.4609375,-11.23046875,-42.96875,-6.8359375,0.0,0
1586278833.477429,120,3,-32.71484375,-16.6015625,-20.5078125,-7.8125,0.0,0
1586278833.4813352,120,3,-27.34375,-28.80859375,-33.203125,-20.01953125,0.0,0
1586278833.4852414,120,3,-16.11328125,-29.78515625,-56.15234375,-30.2734375,0.0,0
1586278833.4891477,120,3,-15.13671875,-25.390625,-32.71484375,-24.90234375,0.0,0
1586278833.493054,120,3,-9.27734375,-29.78515625,-1.46484375,-7.8125,0.0,0
1586278833.4969602,120,3,-14.16015625,-40.52734375,-5.37109375,0.48828125,0.0,0
1586278833.5008664,120,3,-19.04296875,-34.66796875,-4.39453125,-15.13671875,0.0,0
1586278833.5047727,120,3,-18.5546875,-14.6484375,-11.23046875,-44.921875,0.0,0
1586278833.508679,120,3,-13.671875,-12.20703125,-29.296875,-41.50390625,0.0,0
1586278833.5125852,120,3,-10.25390625,-30.76171875,-19.53125,-25.390625,0.0,0
1586278833.5164914,120,3,-19.53125,-49.8046875,-39.55078125,-32.2265625,0.0,0
1586278833.5203977,120,3,-24.4140625,-49.8046875,-64.453125,-37.109375,0.0,0
1586278833.524304,120,3,-24.4140625,-36.1328125,-45.41015625,-43.9453125,0.0,0
1586278833.5282102,120,3,-36.1328125,-31.25,-33.203125,-45.8984375,0.0,0
1586278833.5321164,120,3,-40.52734375,-27.34375,-41.015625,-31.25,0.0,0
1586278833.5360227,120,3,-19.04296875,-27.83203125,-43.45703125,-23.92578125,0.0,0
1586278833.539929,120,3,-19.04296875,-36.62109375,-28.3203125,-22.94921875,0.0,0
1586278833.5438352,120,3,-30.76171875,-26.85546875,-4.8828125,-31.25,0.0,0
1586278833.5477414,120,3,-32.2265625,-30.2734375,-14.6484375,-34.66796875,0.0,0
1586278833.5516477,120,3,-20.5078125,-32.2265625,-31.25,-6.8359375,0.0,0
1586278833.555554,120,3,-9.27734375,-25.390625,-34.66796875,12.6953125,0.0,0
1586278833.5594602,120,3,-17.08984375,-14.6484375,-39.0625,1.46484375,0.0,0
1586278833.5633664,120,3,-21.484375,-22.4609375,-48.828125,-15.625,0.0,0
1586278833.5672727,120,3,-18.06640625,-42.48046875,-27.34375,-20.5078125,0.0,0
1586278833.571179,120,3,-12.6953125,-47.36328125,-6.8359375,-13.671875,0.0,0
1586278833.5750852,120,3,-14.6484375,-41.50390625,-21.484375,-12.6953125,0.0,0
1586278833.5789914,120,3,-23.92578125,-41.015625,-24.4140625,-15.625,0.0,0
1586278833.5828977,120,3,-39.0625,-41.015625,-22.94921875,-22.94921875,0.0,0
1586278833.586804,120,3,-23.92578125,-27.83203125,-36.1328125,-36.1328125,0.0,0
1586278833.5907102,120,3,-1.46484375,-23.4375,-46.38671875,-31.73828125,0.0,0
1586278833.5946164,120,3,-5.859375,-41.50390625,-22.4609375,-19.53125,0.0,0
1586278833.5985227,120,3,-13.18359375,-47.8515625,-30.76171875,-21.484375,0.0,0
1586278833.602429,120,3,-22.4609375,-40.0390625,-46.38671875,-28.80859375,0.0,0
1586278833.6063352,120,3,-22.4609375,-21.97265625,-16.11328125,-29.78515625,0.0,0
1586278833.6102414,120,3,-18.06640625,-20.99609375,11.23046875,-22.94921875,0.0,0
1586278833.6141477,120,3,-20.5078125,-17.578125,16.11328125,-15.13671875,0.0,0
1586278833.618054,120,3,-27.83203125,-12.20703125,-24.90234375,-10.7421875,0.0,0
1586278833.6219602,120,3,-38.0859375,-43.45703125,-45.8984375,-18.5546875,0.0,0
1586278833.6258664,120,3,-37.109375,-59.5703125,-28.3203125,-27.34375,0.0,0
1586278833.6297727,120,3,-40.0390625,-59.5703125,-25.390625,-22.4609375,0.0,0
1586278833.633679,120,3,-37.109375,-45.41015625,-25.390625,-5.37109375,0.0,0
1586278833.6375852,120,3,-13.671875,-33.69140625,-27.34375,15.625,0.0,0
1586278833.6414914,120,3,-0.9765625,-33.203125,-37.109375,6.8359375,0.0,0
1586278833.6453977,120,3,-3.41796875,-17.08984375,-52.24609375,-12.20703125,0.0,0
1586278833.649304,120,3,-9.27734375,-3.90625,-43.9453125,-11.23046875,0.0,0
1586278833.6532102,120,3,-8.7890625,-11.23046875,-22.94921875,1.46484375,0.0,0
1586278833.6571164,120,3,-13.18359375,-28.3203125,-12.20703125,-0.48828125,0.0,0
1586278833.6610227,120,3,-27.83203125,-48.828125,-24.4140625,-25.87890625,0.0,0
1586278833.664929,120,3,-34.1796875,-46.875,-37.109375,-40.52734375,0.0,0
1586278833.6688352,120,3,-33.203125,-33.69140625,-12.6953125,-30.76171875,0.0,0
1586278833.6727414,120,3,-26.85546875,-28.80859375,-19.04296875,-27.83203125,0.0,0
1586278833.6766477,120,3,-30.2734375,-31.73828125,-36.1328125,-25.87890625,0.0,0
1586278833.680554,120,3,-45.8984375,-29.78515625,-32.2265625,-25.390625,0.0,0
1586278833.6844602,120,3,-32.71484375,-18.5546875,-44.43359375,-36.1328125,0.0,0
1586278833.6883664,120,3,-11.23046875,-36.1328125,-56.15234375,-27.83203125,0.0,0
1586278833.6922727,120,3,-13.18359375,-49.8046875,-51.26953125,-11.23046875,0.0,0
1586278833.696179,120,3,-15.625,-23.4375,-27.34375,-1.46484375,0.0,0
1586278833.7000852,120,3,-12.20703125,-3.90625,-11.71875,-5.37109375,0.0,0
1586278833.7039914,120,3,-21.484375,-12.20703125,-26.85546875,-19.53125,0.0,0
1586278833.7078977,120,3,-20.5078125,-19.04296875,-36.62109375,-23.92578125,0.0,0
1586278833.711804,120,3,-18.5546875,-18.5546875,-19.04296875,-13.671875,0.0,0
1586278833.7157102,120,3,-22.94921875,-32.71484375,-26.3671875,-11.71875,0.0,0
1586278833.7196164,120,3,-34.1796875,-43.45703125,-51.26953125,-21.97265625,0.0,0
1586278833.7235227,120,3,-44.921875,-42.48046875,-42.48046875,-39.0625,0.0,0
1586278833.727429,120,3,-41.9921875,-34.1796875,-38.57421875,-48.33984375,0.0,0
1586278833.7313352,120,3,-34.1796875,-21.484375,-21.97265625,-21.97265625,0.0,0
1586278833.7352414,120,3,-36.1328125,-19.53125,-19.04296875,3.41796875,0.0,0
1586278833.7391477,120,3,-25.390625,-25.390625,-33.69140625,0.9765625,0.0,0
1586278833.743054,120,3,-20.5078125,-28.80859375,-17.08984375,-19.04296875,0.0,0
1586278833.7469602,120,3,-19.04296875,-34.1796875,2.44140625,-16.11328125,0.0,0
1586278833.7508664,120,3,-6.34765625,-24.4140625,-37.59765625,-1.46484375,0.0,0
1586278833.7547727,120,3,-0.9765625,-17.578125,-80.078125,7.8125,0.0,0
1586278833.758679,120,3,-3.41796875,-23.4375,-39.55078125,-0.9765625,0.0,0
1586278833.7625852,120,3,-15.625,-20.01953125,-4.8828125,-24.4140625,0.0,0
1586278833.7664914,120,3,-25.87890625,-7.32421875,-26.85546875,-32.71484375,0.0,0
1586278833.7703977,120,3,-16.11328125,-3.41796875,-11.23046875,-19.53125,0.0,0
1586278833.774304,120,3,-12.20703125,-13.18359375,7.8125,-8.7890625,0.0,0
1586278833.7782102,120,3,-17.08984375,-4.8828125,-21.97265625,-12.6953125,0.0,0
1586278833.7821164,120,3,-22.94921875,-4.8828125,-32.2265625,-24.90234375,0.0,0
1586278833.7860227,120,3,-41.50390625,-20.5078125,-30.2734375,-30.76171875,0.0,0
1586278833.789929,120,3,-32.2265625,-38.57421875,-30.76171875,-31.25,0.0,0
1586278833.7938352,120,3,-9.27734375,-32.2265625,-76.171875,-14.6484375,0.0,0
1586278833.7977414,120,3,-19.53125,-22.4609375,-84.47265625,-8.30078125,0.0,0
1586278833.8016477,120,3,-34.1796875,-20.99609375,-30.2734375,-35.15625,0.0,0
1586278833.805554,121,1,-30.2734375,-6.8359375,-2.9296875,-43.9453125,0.0,0
1586278833.8094602,121,1,-22.4609375,-13.18359375,-7.8125,-52.734375,0.0,0
1586278833.8133664,121,1,-23.4375,-18.5546875,-38.57421875,-35.64453125,0.0,0
1586278833.8172727,121,1,-25.87890625,-26.3671875,-26.3671875,-9.27734375,0.0,0
1586278833.821179,121,1,-24.4140625,-21.484375,-25.390625,-13.18359375,0.0,0
1586278833.8250852,121,1,-21.484375,-24.4140625,-39.0625,-10.7421875,0.0,0
1586278833.8289914,121,1,-23.4375,-55.17578125,-38.0859375,-13.18359375,0.0,0
1586278833.8328977,121,1,-21.484375,-41.50390625,-27.83203125,-11.71875,0.0,0
1586278833.836804,121,1,-15.625,-10.25390625,-35.64453125,-4.8828125,0.0,0
1586278833.8407102,121,1,-29.78515625,-7.32421875,-71.2890625,-12.6953125,0.0,0
1586278833.8446164,121,1,-35.15625,-23.4375,-66.89453125,-24.90234375,0.0,0
1586278833.8485227,121,1,-12.6953125,-21.97265625,-37.59765625,-24.4140625,0.0,0
1586278833.852429,121,1,-13.18359375,-10.25390625,-12.6953125,-18.06640625,0.0,0
1586278833.8563352,121,1,-22.94921875,-17.578125,-12.6953125,-14.6484375,0.0,0
1586278833.8602414,121,1,-28.3203125,-40.0390625,-28.80859375,-24.4140625,0.0,0
1586278833.8641477,121,1,-26.85546875,-19.04296875,-38.0859375,-44.43359375,0.0,0
1586278833.868054,121,1,-23.4375,-14.16015625,-35.64453125,-55.17578125,0.0,0
1586278833.8719602,121,1,-27.34375,-37.59765625,-26.3671875,-40.0390625,0.0,0
1586278833.8758664,121,1,-30.2734375,-32.2265625,-43.9453125,-19.04296875,0.0,0
1586278833.8797727,121,1,-27.34375,-24.4140625,-52.734375,-32.71484375,0.0,0
1586278833.883679,121,1,-15.13671875,-26.85546875,-37.59765625,-38.57421875,0.0,0
1586278833.8875852,121,1,-13.18359375,-46.875,-46.875,-33.203125,0.0,0
1586278833.8914914,121,1,-6.34765625,-27.34375,-46.38671875,-22.4609375,0.0,0
1586278833.8953977,121,1,-6.34765625,-15.625,-33.203125,-14.16015625,0.0,0
1586278833.899304,121,1,-19.04296875,-20.01953125,-20.01953125,-20.5078125,0.0,0
1586278833.9032102,121,1,-20.5078125,-21.97265625,-30.2734375,-35.15625,0.0,0
1586278833.9071164,121,1,-14.6484375,-32.71484375,-27.83203125,-29.296875,0.0,0
1586278833.9110227,121,1,-12.20703125,-40.52734375,-4.8828125,-14.16015625,0.0,0
1586278833.914929,121,1,-12.6953125,-24.4140625,-14.6484375,-1.46484375,0.0,0
1586278833.9188352,121,1,-27.34375,-15.625,-34.66796875,-4.8828125,0.0,0
1586278833.9227414,121,1,-45.41015625,-36.62109375,-19.04296875,-27.83203125,0.0,0
1586278833.9266477,121,1,-26.3671875,-36.1328125,-10.7421875,-30.2734375,0.0,0
1586278833.930554,121,1,-18.5546875,-30.2734375,-34.1796875,-17.08984375,0.0,0
1586278833.9344602,121,1,-32.2265625,-29.296875,-25.390625,-3.90625,0.0,0
1586278833.9383664,121,1,-29.296875,-33.69140625,6.34765625,-0.9765625,0.0,0
1586278833.9422727,121,1,-34.1796875,-46.875,2.9296875,-13.18359375,0.0,0
1586278833.946179,121,1,-36.1328125,-32.71484375,-43.9453125,-31.25,0.0,0
1586278833.9500852,121,1,-27.34375,-20.99609375,-59.5703125,-24.90234375,0.0,0
1586278833.9539914,121,1,-20.01953125,-5.859375,-31.73828125,-12.20703125,0.0,0
1586278833.9578977,121,1,-12.6953125,-12.6953125,-17.578125,-24.90234375,0.0,0
1586278833.961804,121,1,-13.18359375,-30.2734375,-37.59765625,-34.66796875,0.0,0
1586278833.9657102,121,1,-19.04296875,-27.83203125,-32.2265625,-33.203125,0.0,0
1586278833.9696164,121,1,-20.99609375,-27.34375,-28.80859375,-26.3671875,0.0,0
1586278833.9735227,121,1,-16.11328125,-24.90234375,-32.71484375,-9.27734375,0.0,0
1586278833.977429,121,1,-12.6953125,-29.78515625,-0.48828125,0.9765625,0.0,0
1586278833.9813352,121,1,-20.01953125,-18.5546875,-12.20703125,-12.20703125,0.0,0
1586278833.9852414,121,1,-26.85546875,-4.39453125,-67.3828125,-34.66796875,0.0,0
1586278833.9891477,121,1,-39.55078125,-22.4609375,-59.5703125,-30.76171875,0.0,0
1586278833.993054,121,1,-33.203125,-33.69140625,-8.30078125,-10.7421875,0.0,0
1586278833.9969602,121,1,-16.11328125,-36.1328125,1.46484375,-10.25390625,0.0,0
1586278834.0008664,121,1,-18.06640625,-36.62109375,-4.39453125,-16.6015625,0.0,0
1586278834.0047727,121,1,-20.99609375,-38.57421875,-17.08984375,-20.99609375,0.0,0
1586278834.008679,121,1,-24.4140625,-37.59765625,-13.671875,-20.5078125,0.0,0
1586278834.0125852,121,1,-22.4609375,-50.29296875,-25.390625,-8.7890625,0.0,0
1586278834.0164914,121,1,-22.4609375,-49.31640625,-43.9453125,-2.9296875,0.0,0
1586278834.0203977,121,1,-31.25,-32.71484375,-24.90234375,-0.9765625,0.0,0
1586278834.024304,121,1,-43.9453125,-35.15625,-15.13671875,-12.20703125,0.0,0
1586278834.0282102,121,1,-38.0859375,-35.15625,-41.9921875,-23.92578125,0.0,0
1586278834.0321164,121,1,-23.4375,-27.83203125,-62.01171875,-10.7421875,0.0,0
1586278834.0360227,121,1,-22.4609375,-15.625,-39.0625,-7.32421875,0.0,0
1586278834.039929,121,1,-26.3671875,-17.08984375,-23.4375,-27.83203125,0.0,0
1586278834.0438352,121,1,-27.83203125,-41.015625,-15.13671875,-35.15625,0.0,0
1586278834.0477414,121,1,-15.13671875,-43.9453125,-2.9296875,-29.78515625,0.0,0
1586278834.0516477,121,1,-5.859375,-24.4140625,-14.16015625,-24.4140625,0.0,0
1586278834.055554,121,1,-4.39453125,-22.4609375,-20.5078125,-12.6953125,0.0,0
1586278834.0594602,121,1,-10.25390625,-32.2265625,-13.18359375,-21.97265625,0.0,0
1586278834.0633664,121,1,-21.484375,-47.8515625,-28.80859375,-36.1328125,0.0,0
1586278834.0672727,121,1,-20.01953125,-50.78125,-32.71484375,-23.92578125,0.0,0
1586278834.071179,121,1,-20.5078125,-35.15625,-26.3671875,-19.04296875,0.0,0
1586278834.0750852,121,1,-19.04296875,-15.625,-32.71484375,-10.25390625,0.0,0
1586278834.0789914,121,1,-26.85546875,-21.97265625,-27.83203125,-3.41796875,0.0,0
1586278834.0828977,121,1,-41.015625,-37.109375,-27.34375,-21.484375,0.0,0
1586278834.086804,121,1,-36.62109375,-29.296875,-26.85546875,-37.109375,0.0,0
1586278834.0907102,121,1,-11.23046875,-15.625,-6.8359375,-22.94921875,0.0,0
1586278834.0946164,121,1,-4.39453125,-20.99609375,-2.9296875,-2.44140625,0.0,0
1586278834.0985227,121,1,-13.671875,-30.2734375,-18.06640625,-6.34765625,0.0,0
1586278834.102429,121,1,-16.6015625,-32.71484375,-20.01953125,-11.71875,0.0,0
1586278834.1063352,121,1,-20.99609375,-32.2265625,-43.45703125,-17.08984375,0.0,0
1586278834.1102414,121,1,-14.16015625,-25.390625,-47.36328125,-4.8828125,0.0,0
1586278834.1141477,121,1,-10.25390625,-40.52734375,-37.109375,14.16015625,0.0,0
1586278834.118054,121,1,-14.16015625,-41.015625,-39.0625,8.30078125,0.0,0
1586278834.1219602,121,1,-12.20703125,-29.78515625,-22.94921875,-3.41796875,0.0,0
1586278834.1258664,121,1,-19.53125,-35.15625,-11.71875,-9.27734375,0.0,0
1586278834.1297727,121,1,-14.6484375,-19.53125,-12.20703125,-1.953125,0.0,0
1586278834.133679,121,1,-12.6953125,-3.41796875,-23.4375,4.8828125,0.0,0
1586278834.1375852,121,1,-28.80859375,-25.390625,-43.45703125,-4.8828125,0.0,0
1586278834.1414914,121,1,-37.109375,-30.76171875,-28.3203125,-20.99609375,0.0,0
1586278834.1453977,121,1,-36.1328125,-21.484375,-11.23046875,-34.66796875,0.0,0
1586278834.149304,121,1,-24.4140625,-35.15625,-14.6484375,-26.3671875,0.0,0
1586278834.1532102,121,1,-16.6015625,-41.50390625,-13.671875,2.44140625,0.0,0
1586278834.1571164,121,1,-20.01953125,-30.2734375,-14.16015625,8.7890625,0.0,0
1586278834.1610227,121,1,-22.94921875,-29.78515625,-15.13671875,-11.23046875,0.0,0
1586278834.164929,121,1,-18.5546875,-23.92578125,-18.06640625,-26.3671875,0.0,0
1586278834.1688352,121,1,-13.671875,-15.13671875,-10.25390625,-20.99609375,0.0,0
1586278834.1727414,121,1,-5.859375,-25.87890625,-18.5546875,-0.48828125,0.0,0
1586278834.1766477,121,1,-3.90625,-21.97265625,-21.97265625,-0.48828125,0.0,0
1586278834.180554,121,1,-16.6015625,-27.34375,-21.484375,-18.06640625,0.0,0
1586278834.1844602,121,1,-19.04296875,-35.64453125,-45.8984375,-27.83203125,0.0,0
1586278834.1883664,121,1,-13.671875,-34.1796875,-47.8515625,-26.85546875,0.0,0
1586278834.1922727,121,1,-13.671875,-33.203125,-42.48046875,-7.8125,0.0,0
1586278834.196179,121,1,-11.23046875,-26.3671875,-32.2265625,-3.41796875,0.0,0
1586278834.2000852,121,1,-11.23046875,-27.83203125,-30.76171875,-22.94921875,0.0,0
1586278834.2039914,121,1,-20.01953125,-25.390625,-25.390625,-30.2734375,0.0,0
1586278834.2078977,121,1,-25.87890625,-17.578125,-6.8359375,-27.83203125,0.0,0
1586278834.211804,121,1,-24.4140625,-22.4609375,-16.6015625,-13.18359375,0.0,0
1586278834.2157102,121,1,-33.69140625,-56.15234375,-17.578125,-0.9765625,0.0,0
1586278834.2196164,121,1,-40.52734375,-55.17578125,-13.671875,-12.20703125,0.0,0
1586278834.2235227,121,1,-41.50390625,-37.109375,-25.87890625,-29.78515625,0.0,0
1586278834.227429,121,1,-44.43359375,-47.8515625,-17.08984375,-29.78515625,0.0,0
1586278834.2313352,121,1,-37.109375,-32.71484375,-17.578125,-23.92578125,0.0,0
1586278834.2352414,121,1,-25.87890625,-17.578125,-39.0625,-19.04296875,0.0,0
1586278834.2391477,121,1,-27.34375,-19.53125,-21.484375,-25.87890625,0.0,0
1586278834.243054,121,1,-34.66796875,-17.578125,-26.85546875,-42.48046875,0.0,0
1586278834.2469602,121,1,-32.2265625,-7.32421875,-39.55078125,-40.0390625,0.0,0
1586278834.2508664,121,1,-23.92578125,-9.765625,-40.0390625,-27.83203125,0.0,0
1586278834.2547727,121,1,-23.92578125,-33.69140625,-30.2734375,-23.92578125,0.0,0
1586278834.258679,121,1,-31.25,-54.19921875,-28.3203125,-23.4375,0.0,0
1586278834.2625852,121,1,-36.1328125,-44.921875,-17.08984375,-26.3671875,0.0,0
1586278834.2664914,121,1,-40.0390625,-26.3671875,-6.34765625,-31.25,0.0,0
1586278834.2703977,121,1,-28.3203125,-15.13671875,-6.8359375,-28.80859375,0.0,0
1586278834.274304,121,1,-21.97265625,-18.06640625,10.7421875,-22.4609375,0.0,0
1586278834.2782102,121,1,-36.62109375,-38.57421875,-11.23046875,-24.90234375,0.0,0
1586278834.2821164,121,1,-38.57421875,-37.109375,-29.78515625,-45.41015625,0.0,0
1586278834.2860227,121,1,-34.1796875,-20.5078125,-25.87890625,-47.36328125,0.0,0
1586278834.289929,121,1,-33.203125,-2.9296875,-30.76171875,-27.34375,0.0,0
1586278834.2938352,121,1,-22.4609375,-1.46484375,-36.62109375,-11.23046875,0.0,0
1586278834.2977414,121,1,-17.08984375,-21.484375,-38.57421875,1.46484375,0.0,0
1586278834.3016477,121,1,-29.296875,-36.1328125,-23.92578125,-8.30078125,0.0,0
1586278834.305554,121,1,-23.92578125,-24.90234375,-22.94921875,-8.30078125,0.0,0
1586278834.3094602,121,1,-17.578125,-18.5546875,-13.671875,-4.39453125,0.0,0
1586278834.3133664,121,1,-20.01953125,-25.87890625,0.0,-7.32421875,0.0,0
1586278834.3172727,121,1,-19.53125,-20.01953125,-14.6484375,-1.46484375,0.0,0
1586278834.321179,121,1,-20.99609375,-29.296875,-19.53125,-20.01953125,0.0,0
1586278834.3250852,121,1,-14.16015625,-37.59765625,-10.7421875,-31.25,0.0,0
1586278834.3289914,121,1,-11.23046875,-39.0625,-12.20703125,-22.4609375,0.0,0
1586278834.3328977,121,1,-11.71875,-43.9453125,-15.13671875,-11.23046875,0.0,0
1586278834.336804,121,1,-20.5078125,-29.296875,-19.53125,-11.71875,0.0,0
1586278834.3407102,121,1,-31.25,-26.3671875,-48.33984375,-24.90234375,0.0,0
1586278834.3446164,121,1,-38.57421875,-31.73828125,-27.34375,-41.015625,0.0,0
1586278834.3485227,121,1,-34.1796875,-20.5078125,-6.34765625,-37.109375,0.0,0
1586278834.352429,121,1,-24.90234375,-14.6484375,-21.484375,-11.71875,0.0,0
1586278834.3563352,121,1,-26.85546875,-22.94921875,-30.76171875,-9.765625,0.0,0
1586278834.3602414,121,1,-31.25,-34.1796875,-16.11328125,-23.92578125,0.0,0
1586278834.3641477,121,1,-34.66796875,-46.38671875,-16.6015625,-24.90234375,0.0,0
1586278834.368054,121,1,-27.34375,-45.41015625,-11.71875,-16.6015625,0.0,0
1586278834.3719602,121,1,-18.5546875,-38.0859375,-3.41796875,-3.41796875,0.0,0
1586278834.3758664,121,1,-21.97265625,-41.015625,-23.4375,1.46484375,0.0,0
1586278834.3797727,121,1,-27.34375,-48.828125,-34.1796875,-8.7890625,0.0,0
1586278834.383679,121,1,-26.3671875,-36.1328125,-16.6015625,-23.92578125,0.0,0
1586278834.3875852,121,1,-16.11328125,-25.87890625,-16.6015625,-28.3203125,0.0,0
1586278834.3914914,121,1,-12.6953125,-28.80859375,-52.734375,-31.25,0.0,0
1586278834.3953977,121,1,-16.11328125,-27.34375,-49.8046875,-24.4140625,0.0,0
1586278834.399304,121,1,-19.04296875,-16.11328125,-2.44140625,-22.4609375,0.0,0
1586278834.4032102,121,1,-18.06640625,-8.7890625,-2.44140625,-45.41015625,0.0,0
1586278834.4071164,121,1,-15.625,-13.671875,-39.55078125,-43.9453125,0.0,0
1586278834.4110227,121,1,-16.11328125,-14.6484375,-36.62109375,-25.390625,0.0,0
1586278834.414929,121,1,-20.99609375,-19.53125,-32.71484375,-13.671875,0.0,0
1586278834.4188352,121,1,-29.78515625,-27.83203125,-22.4609375,-16.11328125,0.0,0
1586278834.4227414,121,1,-33.69140625,-32.2265625,-6.8359375,-28.3203125,0.0,0
1586278834.4266477,121,1,-35.15625,-49.31640625,-11.71875,-29.296875,0.0,0
1586278834.430554,121,1,-28.80859375,-56.640625,-35.15625,-9.27734375,0.0,0
1586278834.4344602,121,1,-25.87890625,-42.96875,-28.80859375,0.48828125,0.0,0
1586278834.4383664,121,1,-26.85546875,-23.4375,-17.578125,-7.8125,0.0,0
1586278834.4422727,121,1,-24.4140625,-6.34765625,-32.2265625,-18.06640625,0.0,0
1586278834.446179,121,1,-21.484375,-2.9296875,-28.80859375,-32.71484375,0.0,0
1586278834.4500852,121,1,-20.01953125,-13.18359375,-19.04296875,-35.15625,0.0,0
1586278834.4539914,121,1,-12.6953125,-22.4609375,-21.97265625,-22.4609375,0.0,0
1586278834.4578977,121,1,-18.5546875,-30.76171875,-31.25,-27.34375,0.0,0
1586278834.461804,121,1,-30.2734375,-41.015625,-42.48046875,-39.55078125,0.0,0
1586278834.4657102,121,1,-25.390625,-28.3203125,-38.57421875,-44.921875,0.0,0
1586278834.4696164,121,1,-15.13671875,-27.83203125,-18.06640625,-33.69140625,0.0,0
1586278834.4735227,121,1,-17.08984375,-38.57421875,-29.78515625,-10.7421875,0.0,0
1586278834.477429,121,1,-21.484375,-33.69140625,-41.015625,-1.953125,0.0,0
1586278834.4813352,121,1,-20.5078125,-24.4140625,-52.734375,-18.5546875,0.0,0
1586278834.4852414,121,1,-16.11328125,-11.23046875,-30.2734375,-16.6015625,0.0,0
1586278834.4891477,121,1,-24.4140625,-21.484375,12.6953125,-12.6953125,0.0,0
1586278834.493054,121,1,-31.25,-35.15625,1.953125,-16.11328125,0.0,0
1586278834.4969602,121,1,-27.34375,-42.96875,3.90625,-10.7421875,0.0,0
1586278834.5008664,121,1,-35.15625,-44.921875,-23.92578125,-23.4375,0.0,0
1586278834.5047727,121,1,-36.1328125,-28.80859375,-54.19921875,-26.3671875,0.0,0
1586278834.508679,121,1,-26.3671875,-16.11328125,-26.85546875,-21.484375,0.0,0
1586278834.5125852,121,1,-18.06640625,-14.16015625,-17.578125,-12.6953125,0.0,0
1586278834.5164914,121,1,-10.7421875,-22.4609375,-16.11328125,-1.46484375,0.0,0
1586278834.5203977,121,1,-5.859375,-33.203125,-19.53125,0.9765625,0.0,0
1586278834.524304,121,1,-6.8359375,-12.20703125,-18.06640625,-13.671875,0.0,0
1586278834.5282102,121,1,-11.71875,-4.8828125,-41.015625,-22.94921875,0.0,0
1586278834.5321164,121,1,-18.5546875,-39.55078125,-49.31640625,-12.20703125,0.0,0
1586278834.5360227,121,1,-24.90234375,-50.29296875,-27.34375,-16.6015625,0.0,0
1586278834.539929,121,1,-29.296875,-40.52734375,-26.85546875,-36.1328125,0.0,0
1586278834.5438352,121,1,-35.15625,-29.78515625,-34.66796875,-41.50390625,0.0,0
1586278834.5477414,121,1,-30.76171875,-33.69140625,-41.015625,-32.71484375,0.0,0
1586278834.5516477,121,1,-28.80859375,-39.55078125,-31.73828125,-26.85546875,0.0,0
1586278834.555554,121,1,-29.296875,-16.11328125,-13.671875,-13.671875,0.0,0
1586278834.5594602,121,1,-19.53125,-4.39453125,-4.8828125,-10.7421875,0.0,0
1586278834.5633664,121,1,-28.80859375,-21.484375,-10.25390625,-28.80859375,0.0,0
1586278834.5672727,121,1,-40.52734375,-40.52734375,-15.625,-30.76171875,0.0,0
1586278834.571179,121,1,-28.80859375,-28.3203125,-21.97265625,-21.484375,0.0,0
1586278834.5750852,121,1,-28.80859375,-23.4375,-49.31640625,-1.46484375,0.0,0
1586278834.5789914,121,1,-35.64453125,-49.31640625,-45.8984375,-1.953125,0.0,0
1586278834.5828977,121,1,-38.0859375,-58.10546875,-10.25390625,-22.94921875,0.0,0
1586278834.586804,121,1,-35.15625,-30.76171875,-20.01953125,-20.01953125,0.0,0
1586278834.5907102,121,1,-31.25,-24.4140625,-36.62109375,-8.30078125,0.0,0
1586278834.5946164,121,1,-27.83203125,-25.390625,-41.9921875,-1.953125,0.0,0
1586278834.5985227,121,1,-31.25,-19.53125,-40.0390625,-14.6484375,0.0,0
1586278834.602429,121,1,-56.15234375,-42.48046875,-20.99609375,-38.0859375,0.0,0
1586278834.6063352,121,1,-42.96875,-23.4375,-9.765625,-41.9921875,0.0,0
1586278834.6102414,121,1,-24.4140625,0.9765625,4.8828125,-28.80859375,0.0,0
1586278834.6141477,121,1,-35.15625,-27.34375,-37.109375,-22.4609375,0.0,0
1586278834.618054,121,1,-31.73828125,-33.69140625,-49.8046875,-23.92578125,0.0,0
1586278834.6219602,121,1,-31.73828125,-26.85546875,-21.484375,-24.4140625,0.0,0
1586278834.6258664,121,1,-41.50390625,-34.66796875,-25.87890625,-26.3671875,0.0,0
1586278834.6297727,121,1,-34.66796875,-40.0390625,-27.34375,-18.5546875,0.0,0
1586278834.633679,121,1,-27.83203125,-36.1328125,-30.76171875,-7.8125,0.0,0
1586278834.6375852,121,1,-31.25,-30.76171875,-34.1796875,-10.25390625,0.0,0
1586278834.6414914,121,1,-31.73828125,-32.71484375,-26.85546875,-23.92578125,0.0,0
1586278834.6453977,121,1,-37.59765625,-33.203125,-18.5546875,-42.96875,0.0,0
1586278834.649304,121,1,-39.55078125,-23.92578125,-14.6484375,-43.9453125,0.0,0
1586278834.6532102,121,1,-36.62109375,-13.671875,-19.53125,-38.57421875,0.0,0
1586278834.6571164,121,1,-45.8984375,-10.25390625,-13.671875,-33.203125,0.0,0
1586278834.6610227,121,1,-70.80078125,-13.18359375,-11.23046875,-57.6171875,0.0,0
1586278834.664929,121,1,-93.26171875,-25.87890625,-15.13671875,-93.26171875,0.0,0
1586278834.6688352,121,1,-89.84375,-25.390625,-3.41796875,-89.35546875,0.0,0
1586278834.6727414,121,1,-85.9375,-13.18359375,3.90625,-80.078125,0.0,0
1586278834.6766477,121,1,-109.86328125,-6.34765625,-0.9765625,-96.6796875,0.0,0
1586278834.680554,121,1,-124.0234375,-5.859375,-4.8828125,-114.2578125,0.0,0
1586278834.6844602,121,1,-154.78515625,-5.859375,2.44140625,-135.25390625,0.0,0
1586278834.6883664,121,1,-172.8515625,5.37109375,15.13671875,-153.80859375,0.0,0
1586278834.6922727,121,1,-147.94921875,12.6953125,14.6484375,-149.90234375,0.0,0
1586278834.696179,121,1,-161.1328125,12.20703125,23.4375,-160.64453125,0.0,0
1586278834.7000852,121,1,-188.4765625,13.671875,37.109375,-183.59375,0.0,0
1586278834.7039914,121,1,-200.68359375,12.20703125,40.52734375,-205.56640625,0.0,0
1586278834.7078977,121,1,-203.61328125,0.0,41.015625,-216.30859375,0.0,0
1586278834.711804,121,1,-206.54296875,2.9296875,40.52734375,-201.66015625,0.0,0
1586278834.7157102,121,1,-210.44921875,19.53125,50.78125,-186.03515625,0.0,0
1586278834.7196164,121,1,-220.703125,23.4375,60.546875,-203.125,0.0,0
1586278834.7235227,121,1,-226.07421875,24.4140625,60.05859375,-220.21484375,0.0,0
1586278834.727429,121,1,-224.609375,34.1796875,54.6875,-211.9140625,0.0,0
1586278834.7313352,121,1,-215.33203125,34.1796875,66.89453125,-196.2890625,0.0,0
1586278834.7352414,121,1,-200.1953125,18.5546875,65.91796875,-179.19921875,0.0,0
1586278834.7391477,121,1,-198.2421875,17.08984375,52.734375,-179.19921875,0.0,0
1586278834.743054,121,1,-195.80078125,10.25390625,57.6171875,-186.03515625,0.0,0
1586278834.7469602,121,1,-188.4765625,10.7421875,46.875,-180.6640625,0.0,0
1586278834.7508664,121,1,-181.15234375,24.90234375,33.69140625,-170.8984375,0.0,0
1586278834.7547727,121,1,-187.5,34.1796875,31.73828125,-151.85546875,0.0,0
1586278834.758679,121,1,-173.828125,40.0390625,31.25,-137.20703125,0.0,0
1586278834.7625852,121,1,-151.3671875,22.4609375,32.71484375,-143.5546875,0.0,0
1586278834.7664914,121,1,-137.20703125,15.625,8.30078125,-144.04296875,0.0,0
1586278834.7703977,121,1,-118.1640625,14.16015625,-2.9296875,-118.65234375,0.0,0
1586278834.774304,121,1,-102.5390625,-3.90625,1.953125,-91.30859375,0.0,0
1586278834.7782102,121,1,-92.28515625,-20.99609375,15.13671875,-81.0546875,0.0,0
1586278834.7821164,121,1,-81.54296875,-37.109375,18.5546875,-74.21875,0.0,0
1586278834.7860227,121,1,-69.82421875,-26.85546875,-25.390625,-60.05859375,0.0,0
1586278834.789929,121,1,-50.78125,-23.4375,-36.1328125,-39.0625,0.0,0
1586278834.7938352,121,1,-32.2265625,-32.71484375,-13.671875,-25.390625,0.0,0
1586278834.7977414,121,1,-23.92578125,-22.4609375,-38.57421875,-15.625,0.0,0
1586278834.8016477,121,1,-21.97265625,-25.87890625,-49.8046875,-11.23046875,0.0,0
1586278834.805554,121,1,-19.04296875,-51.26953125,-40.0390625,-8.30078125,0.0,0
1586278834.8094602,121,1,0.9765625,-42.48046875,-39.0625,10.7421875,0.0,0
1586278834.8133664,121,1,20.5078125,-25.87890625,-16.6015625,30.76171875,0.0,0
1586278834.8172727,121,1,22.94921875,-35.15625,-28.3203125,41.50390625,0.0,0
1586278834.821179,121,1,20.99609375,-38.0859375,-47.36328125,36.62109375,0.0,0
1586278834.8250852,121,1,30.76171875,-46.875,-31.25,31.25,0.0,0
1586278834.8289914,121,1,45.41015625,-49.31640625,-45.8984375,36.62109375,0.0,0
1586278834.8328977,121,1,48.33984375,-41.015625,-61.5234375,50.78125,0.0,0
1586278834.836804,121,1,50.78125,-41.50390625,-36.1328125,60.546875,0.0,0
1586278834.8407102,121,1,50.29296875,-40.52734375,-20.5078125,48.33984375,0.0,0
1586278834.8446164,121,1,53.7109375,-43.9453125,-46.875,41.015625,0.0,0
1586278834.8485227,121,1,59.08203125,-43.45703125,-44.43359375,48.828125,0.0,0
1586278834.852429,121,1,59.08203125,-40.0390625,-50.29296875,57.6171875,0.0,0
1586278834.8563352,121,1,59.5703125,-44.43359375,-90.8203125,59.08203125,0.0,0
1586278834.8602414,121,1,53.22265625,-59.08203125,-101.07421875,48.828125,0.0,0
1586278834.8641477,121,1,51.7578125,-64.453125,-83.49609375,40.0390625,0.0,0
1586278834.868054,121,1,53.7109375,-44.43359375,-62.98828125,41.015625,0.0,0
1586278834.8719602,121,1,56.640625,-41.015625,-59.08203125,46.38671875,0.0,0
1586278834.8758664,121,1,35.15625,-58.10546875,-62.01171875,55.6640625,0.0,0
1586278834.8797727,121,1,39.55078125,-62.5,-73.2421875,57.6171875,0.0,0
1586278834.883679,121,1,59.5703125,-40.0390625,-52.24609375,45.41015625,0.0,0
1586278834.8875852,121,1,54.6875,-36.62109375,-38.57421875,43.9453125,0.0,0
1586278834.8914914,121,1,59.08203125,-51.7578125,-50.78125,55.17578125,0.0,0
1586278834.8953977,121,1,58.10546875,-50.78125,-45.8984375,64.94140625,0.0,0
1586278834.899304,121,1,56.640625,-54.6875,-48.828125,52.734375,0.0,0
1586278834.9032102,121,1,51.7578125,-51.7578125,-67.3828125,38.0859375,0.0,0
1586278834.9071164,121,1,42.48046875,-47.8515625,-50.78125,40.52734375,0.0,0
1586278834.9110227,121,1,53.7109375,-50.78125,-38.0859375,56.640625,0.0,0
1586278834.914929,121,1,58.59375,-50.29296875,-72.265625,62.5,0.0,0
1586278834.9188352,121,1,52.24609375,-54.19921875,-74.70703125,49.31640625,0.0,0
1586278834.9227414,121,1,52.24609375,-41.9921875,-72.75390625,34.66796875,0.0,0
1586278834.9266477,121,1,55.17578125,-44.921875,-75.68359375,32.2265625,0.0,0
1586278834.930554,121,1,59.5703125,-49.8046875,-46.875,41.50390625,0.0,0
1586278834.9344602,121,1,62.98828125,-26.3671875,-25.390625,57.12890625,0.0,0
1586278834.9383664,121,1,53.7109375,-27.83203125,-35.64453125,60.05859375,0.0,0
1586278834.9422727,121,1,34.66796875,-50.29296875,-70.3125,40.0390625,0.0,0
1586278834.946179,121,1,28.80859375,-64.94140625,-72.75390625,31.25,0.0,0
1586278834.9500852,121,1,28.80859375,-73.73046875,-65.4296875,40.52734375,0.0,0
1586278834.9539914,121,1,32.71484375,-70.3125,-71.77734375,49.8046875,0.0,0
1586278834.9578977,121,1,29.78515625,-47.8515625,-61.5234375,47.36328125,0.0,0
1586278834.961804,121,1,23.92578125,-25.390625,-49.8046875,31.73828125,0.0,0
1586278834.9657102,121,1,26.85546875,-16.6015625,-65.4296875,32.71484375,0.0,0
1586278834.9696164,121,1,30.2734375,-29.296875,-78.125,39.55078125,0.0,0
1586278834.9735227,121,1,38.57421875,-36.1328125,-44.921875,48.33984375,0.0,0
1586278834.977429,121,1,40.52734375,-39.55078125,-21.97265625,53.22265625,0.0,0
1586278834.9813352,121,1,27.83203125,-55.6640625,-46.38671875,32.71484375,0.0,0
1586278834.9852414,121,1,22.4609375,-56.640625,-55.6640625,20.99609375,0.0,0
1586278834.9891477,121,1,17.578125,-46.38671875,-58.59375,28.80859375,0.0,0
1586278834.993054,121,1,8.30078125,-40.0390625,-50.78125,29.78515625,0.0,0
1586278834.9969602,121,1,15.13671875,-39.0625,-29.78515625,21.484375,0.0,0
1586278835.0008664,121,1,20.99609375,-51.26953125,-48.828125,-1.46484375,0.0,0
1586278835.0047727,121,1,21.97265625,-43.9453125,-72.75390625,-16.11328125,0.0,0
1586278835.008679,121,1,25.87890625,-34.66796875,-50.29296875,2.9296875,0.0,0
1586278835.0125852,121,1,25.87890625,-42.48046875,-58.59375,21.484375,0.0,0
1586278835.0164914,121,1,19.04296875,-36.62109375,-62.5,17.08984375,0.0,0
1586278835.0203977,121,1,16.11328125,-31.73828125,-33.203125,1.46484375,0.0,0
1586278835.024304,121,1,17.578125,-39.55078125,-40.52734375,-8.30078125,0.0,0
1586278835.0282102,121,1,12.6953125,-43.9453125,-35.15625,1.46484375,0.0,0
1586278835.0321164,121,1,17.578125,-37.109375,-36.62109375,19.53125,0.0,0
1586278835.0360227,121,1,11.23046875,-46.875,-65.4296875,25.87890625,0.0,0
1586278835.039929,121,1,-7.32421875,-50.78125,-59.08203125,16.6015625,0.0,0
1586278835.0438352,121,1,-9.765625,-40.52734375,-52.24609375,9.27734375,0.0,0
1586278835.0477414,121,1,-8.7890625,-29.296875,-37.59765625,11.23046875,0.0,0
1586278835.0516477,121,1,0.9765625,-42.48046875,-38.0859375,21.484375,0.0,0
1586278835.055554,121,1,4.39453125,-59.08203125,-61.03515625,30.2734375,0.0,0
1586278835.0594602,121,1,-4.8828125,-38.57421875,-52.734375,17.578125,0.0,0
1586278835.0633664,121,1,-9.765625,-24.4140625,-35.15625,-3.41796875,0.0,0
1586278835.0672727,121,1,-8.30078125,-27.34375,-35.64453125,-7.8125,0.0,0
1586278835.071179,121,1,-2.44140625,-28.3203125,-37.109375,0.0,0.0,0
1586278835.0750852,121,1,6.8359375,-25.390625,-30.2734375,19.04296875,0.0,0
1586278835.0789914,121,1,7.32421875,-20.99609375,-31.73828125,13.671875,0.0,0
1586278835.0828977,121,1,-3.90625,-43.45703125,-48.33984375,-9.765625,0.0,0
1586278835.086804,121,1,0.48828125,-49.31640625,-59.5703125,-13.18359375,0.0,0
1586278835.0907102,121,1,5.859375,-32.2265625,-58.10546875,0.0,0.0,0
1586278835.0946164,121,1,2.9296875,-34.66796875,-73.2421875,6.8359375,0.0,0
1586278835.0985227,121,1,-13.18359375,-28.80859375,-73.2421875,2.9296875,0.0,0
1586278835.102429,121,1,-9.27734375,-17.08984375,-41.50390625,-15.625,0.0,0
1586278835.1063352,121,1,7.8125,-32.2265625,-29.78515625,-32.71484375,0.0,0
1586278835.1102414,121,1,0.0,-43.45703125,-32.2265625,-22.4609375,0.0,0
1586278835.1141477,121,1,-5.37109375,-20.01953125,-31.25,0.48828125,0.0,0
1586278835.118054,121,1,-9.27734375,-20.5078125,-32.2265625,-0.48828125,0.0,0
1586278835.1219602,121,1,-19.53125,-34.1796875,-40.52734375,-17.578125,0.0,0
1586278835.1258664,121,1,-23.92578125,-36.62109375,-67.87109375,-20.99609375,0.0,0
1586278835.1297727,121,1,-20.5078125,-56.15234375,-70.80078125,-15.625,0.0,0
1586278835.133679,121,1,-13.18359375,-64.94140625,-54.6875,3.90625,0.0,0
1586278835.1375852,121,1,-6.34765625,-30.2734375,-49.31640625,16.11328125,0.0,0
1586278835.1414914,121,1,-5.37109375,-36.1328125,-64.453125,-5.37109375,0.0,0
1586278835.1453977,121,1,-12.20703125,-40.0390625,-65.4296875,-11.23046875,0.0,0
1586278835.149304,121,1,-8.30078125,-4.39453125,-21.484375,10.7421875,0.0,0
1586278835.1532102,121,1,-6.34765625,-1.953125,-2.9296875,22.4609375,0.0,0
1586278835.1571164,121,1,-3.41796875,-16.11328125,5.859375,22.4609375,0.0,0
1586278835.1610227,121,1,-4.8828125,-23.92578125,0.48828125,6.34765625,0.0,0
1586278835.164929,121,1,-23.4375,-40.52734375,-8.30078125,-13.18359375,0.0,0
1586278835.1688352,121,1,-21.484375,-56.640625,-41.9921875,-11.23046875,0.0,0
1586278835.1727414,121,1,-10.25390625,-60.546875,-52.24609375,3.41796875,0.0,0
1586278835.1766477,121,1,-14.6484375,-53.7109375,-30.2734375,0.48828125,0.0,0
1586278835.180554,121,1,-17.578125,-33.69140625,-41.9921875,-14.16015625,0.0,0
1586278835.1844602,121,1,-22.4609375,-16.6015625,-56.640625,-16.6015625,0.0,0
1586278835.1883664,121,1,-20.01953125,-8.30078125,-49.8046875,-8.30078125,0.0,0
1586278835.1922727,121,1,-11.23046875,-12.6953125,-29.78515625,8.7890625,0.0,0
1586278835.196179,121,1,-7.8125,-29.78515625,-19.04296875,18.5546875,0.0,0
1586278835.2000852,121,1,0.9765625,-32.2265625,3.90625,6.8359375,0.0,0
1586278835.2039914,121,1,7.32421875,-33.203125,-20.01953125,-9.765625,0.0,0
1586278835.2078977,121,1,-7.32421875,-42.48046875,-29.296875,-13.671875,0.0,0
1586278835.211804,121,1,-16.6015625,-15.13671875,-13.671875,0.48828125,0.0,0
1586278835.2157102,121,1,-12.20703125,-10.25390625,-30.2734375,15.625,0.0,0
1586278835.2196164,121,1,-23.92578125,-39.55078125,-36.1328125,3.90625,0.0,0
1586278835.2235227,121,1,-30.76171875,-43.9453125,-25.87890625,-15.13671875,0.0,0
1586278835.227429,121,1,-17.08984375,-28.80859375,-37.59765625,-21.484375,0.0,0
1586278835.2313352,121,1,-11.23046875,-10.25390625,-39.0625,-14.16015625,0.0,0
1586278835.2352414,121,1,-12.20703125,-17.578125,-33.203125,3.90625,0.0,0
1586278835.2391477,121,1,-14.6484375,-25.390625,-31.73828125,0.48828125,0.0,0
1586278835.243054,121,1,-24.4140625,-35.64453125,-35.15625,-23.92578125,0.0,0
1586278835.2469602,121,1,-23.92578125,-36.62109375,-37.109375,-30.2734375,0.0,0
1586278835.2508664,121,1,-17.08984375,-33.69140625,-36.1328125,-25.87890625,0.0,0
1586278835.2547727,121,1,-14.6484375,-42.96875,-40.0390625,-18.5546875,0.0,0
1586278835.258679,121,1,-10.7421875,-40.52734375,-8.30078125,-13.671875,0.0,0
1586278835.2625852,121,1,-37.59765625,-48.828125,-24.90234375,-21.97265625,0.0,0
1586278835.2664914,121,1,-36.62109375,-39.0625,-35.64453125,-19.04296875,0.0,0
1586278835.2703977,121,1,-5.37109375,-8.30078125,-9.765625,1.46484375,0.0,0
1586278835.274304,121,1,-11.71875,-13.671875,-20.5078125,1.46484375,0.0,0
1586278835.2782102,121,1,-17.08984375,-31.25,-11.71875,-9.27734375,0.0,0
1586278835.2821164,121,1,-15.625,-49.31640625,-15.13671875,-12.20703125,0.0,0
1586278835.2860227,121,1,-17.578125,-50.29296875,-27.34375,-20.99609375,0.0,0
1586278835.289929,121,1,-11.71875,-30.76171875,0.0,-17.578125,0.0,0
1586278835.2938352,121,1,-3.90625,-21.97265625,3.90625,-4.8828125,0.0,0
1586278835.2977414,121,1,-6.8359375,-19.53125,-30.2734375,-2.44140625,0.0,0
1586278835.3016477,121,1,-14.6484375,-14.16015625,-50.29296875,-9.765625,0.0,0
1586278835.305554,121,1,-15.13671875,-20.01953125,-26.85546875,-20.5078125,0.0,0
1586278835.3094602,121,1,-8.30078125,-21.97265625,-5.859375,-15.625,0.0,0
1586278835.3133664,121,1,-9.765625,-19.04296875,-21.484375,-3.90625,0.0,0
1586278835.3172727,121,1,-5.859375,-7.8125,-31.25,-0.9765625,0.0,0
1586278835.321179,121,1,-3.90625,-4.39453125,-31.73828125,-24.90234375,0.0,0
1586278835.3250852,121,1,-18.06640625,-32.2265625,-39.55078125,-49.31640625,0.0,0
1586278835.3289914,121,1,-12.6953125,-35.64453125,-24.90234375,-47.8515625,0.0,0
1586278835.3328977,121,1,-10.25390625,-30.2734375,-11.71875,-30.2734375,0.0,0
1586278835.336804,121,1,-14.16015625,-31.25,-28.80859375,-15.13671875,0.0,0
1586278835.3407102,121,1,-12.20703125,-23.92578125,-37.109375,-13.671875,0.0,0
1586278835.3446164,121,1,-12.20703125,-23.4375,-9.765625,-20.01953125,0.0,0
1586278835.3485227,121,1,-9.765625,-26.85546875,-0.9765625,-10.7421875,0.0,0
1586278835.352429,121,1,-13.671875,-24.90234375,-15.13671875,3.41796875,0.0,0
1586278835.3563352,121,1,-12.20703125,-17.08984375,-8.7890625,0.48828125,0.0,0
1586278835.3602414,121,1,-14.6484375,-11.71875,-6.34765625,-5.859375,0.0,0
1586278835.3641477,121,1,-25.87890625,-28.3203125,-31.25,-25.87890625,0.0,0
1586278835.368054,121,1,-23.4375,-27.83203125,-45.8984375,-24.4140625,0.0,0
1586278835.3719602,121,1,-20.99609375,-29.296875,-29.296875,-3.90625,0.0,0
1586278835.3758664,121,1,-14.6484375,-37.59765625,-40.0390625,2.9296875,0.0,0
1586278835.3797727,121,1,-19.04296875,-28.3203125,-51.26953125,-6.8359375,0.0,0
1586278835.383679,121,1,-37.109375,-43.45703125,-35.64453125,-22.4609375,0.0,0
1586278835.3875852,121,1,-29.78515625,-45.8984375,-26.85546875,-27.83203125,0.0,0
1586278835.3914914,121,1,-20.99609375,-40.52734375,-21.484375,-21.97265625,0.0,0
1586278835.3953977,121,1,-19.04296875,-29.78515625,-30.76171875,-9.27734375,0.0,0
1586278835.399304,121,1,-16.6015625,1.46484375,-44.43359375,-7.8125,0.0,0
1586278835.4032102,121,1,-19.04296875,-4.39453125,-33.203125,-16.6015625,0.0,0
1586278835.4071164,121,1,-30.2734375,-29.78515625,-14.6484375,-35.64453125,0.0,0
1586278835.4110227,121,1,-28.3203125,-40.52734375,-14.6484375,-30.2734375,0.0,0
1586278835.414929,121,1,-21.97265625,-32.71484375,-22.94921875,-15.13671875,0.0,0
1586278835.4188352,121,1,-26.3671875,-30.2734375,-17.578125,-24.90234375,0.0,0
1586278835.4227414,121,1,-31.73828125,-36.1328125,-12.20703125,-41.50390625,0.0,0
1586278835.4266477,121,1,-29.78515625,-29.78515625,-18.5546875,-47.36328125,0.0,0
1586278835.430554,121,1,-26.3671875,-31.25,-17.08984375,-23.4375,0.0,0
1586278835.4344602,121,1,-29.296875,-34.1796875,-40.52734375,-6.8359375,0.0,0
1586278835.4383664,121,1,-33.69140625,-32.71484375,-35.15625,-13.671875,0.0,0
1586278835.4422727,121,1,-31.25,-45.8984375,-27.34375,-29.78515625,0.0,0
1586278835.446179,121,1,-20.01953125,-23.92578125,-47.36328125,-34.66796875,0.0,0
1586278835.4500852,121,1,-16.6015625,-5.859375,-26.3671875,-14.6484375,0.0,0
1586278835.4539914,121,1,-23.4375,-24.4140625,-2.9296875,0.48828125,0.0,0
1586278835.4578977,121,1,-26.85546875,-25.87890625,5.37109375,-6.34765625,0.0,0
1586278835.461804,121,1,-32.2265625,-35.64453125,-8.30078125,-20.01953125,0.0,0
1586278835.4657102,121,1,-32.2265625,-33.69140625,-21.484375,-27.83203125,0.0,0
1586278835.4696164,121,1,-26.3671875,-21.97265625,-30.76171875,-23.92578125,0.0,0
1586278835.4735227,121,1,-25.87890625,-38.57421875,-44.43359375,-11.71875,0.0,0
1586278835.477429,121,1,-26.3671875,-48.33984375,-29.296875,-5.37109375,0.0,0
1586278835.4813352,121,1,-26.85546875,-24.90234375,-18.5546875,-9.27734375,0.0,0
1586278835.4852414,121,1,-24.4140625,-23.92578125,-18.5546875,-12.20703125,0.0,0
1586278835.4891477,121,1,-21.97265625,-40.52734375,-5.859375,-6.8359375,0.0,0
1586278835.493054,121,1,-12.20703125,-33.203125,-15.625,-0.9765625,0.0,0
1586278835.4969602,121,1,-14.6484375,-11.71875,-19.53125,-6.34765625,0.0,0
1586278835.5008664,121,1,-35.15625,-10.7421875,-23.4375,-24.90234375,0.0,0
1586278835.5047727,121,1,-40.0390625,-44.921875,-48.33984375,-37.59765625,0.0,0
1586278835.508679,121,1,-31.25,-46.38671875,-38.0859375,-32.71484375,0.0,0
1586278835.5125852,121,1,-15.625,-29.296875,-19.04296875,-10.7421875,0.0,0
1586278835.5164914,121,1,-26.3671875,-46.875,-27.34375,-2.9296875,0.0,0
1586278835.5203977,121,1,-33.69140625,-39.0625,-22.4609375,-11.71875,0.0,0
1586278835.524304,121,1,-19.53125,-28.80859375,-16.6015625,-23.92578125,0.0,0
1586278835.5282102,121,1,-15.625,-24.4140625,-17.578125,-27.34375,0.0,0
1586278835.5321164,121,1,-4.8828125,-32.71484375,-22.4609375,-2.44140625,0.0,0
1586278835.5360227,121,1,-7.8125,-49.31640625,-21.484375,1.953125,0.0,0
1586278835.539929,121,1,-15.625,-24.4140625,-21.484375,-11.71875,0.0,0
1586278835.5438352,121,1,-15.625,-20.01953125,-25.87890625,-22.4609375,0.0,0
1586278835.5477414,121,1,-15.13671875,-44.43359375,-26.85546875,-22.94921875,0.0,0
1586278835.5516477,121,1,-23.4375,-58.59375,-26.85546875,-12.20703125,0.0,0
1586278835.555554,121,1,-29.78515625,-61.03515625,-13.18359375,-15.625,0.0,0
1586278835.5594602,121,1,-30.2734375,-45.41015625,-39.0625,-18.5546875,0.0,0
1586278835.5633664,121,1,-37.59765625,-26.3671875,-62.5,-31.25,0.0,0
1586278835.5672727,121,1,-30.76171875,-14.6484375,-45.41015625,-28.3203125,0.0,0
1586278835.571179,121,1,-20.5078125,-8.7890625,-30.76171875,-11.23046875,0.0,0
1586278835.5750852,121,1,-17.578125,-25.390625,-28.3203125,-9.27734375,0.0,0
1586278835.5789914,121,1,-24.90234375,-22.4609375,-44.921875,-17.08984375,0.0,0
1586278835.5828977,121,1,-41.015625,-15.625,-36.62109375,-36.1328125,0.0,0
1586278835.586804,121,1,-37.59765625,-28.3203125,-35.64453125,-44.921875,0.0,0
1586278835.5907102,121,1,-41.9921875,-34.1796875,-41.50390625,-25.390625,0.0,0
1586278835.5946164,121,1,-55.6640625,-31.25,-18.06640625,-7.8125,0.0,0
1586278835.5985227,121,1,-35.15625,-25.87890625,2.44140625,-4.8828125,0.0,0
1586278835.602429,121,1,-20.5078125,-33.203125,-32.2265625,-22.94921875,0.0,0
1586278835.6063352,121,1,-25.87890625,-36.1328125,-52.734375,-33.203125,0.0,0
1586278835.6102414,121,1,-21.97265625,-44.921875,-59.08203125,-6.8359375,0.0,0
1586278835.6141477,121,1,-6.8359375,-39.0625,-55.6640625,10.7421875,0.0,0
1586278835.618054,121,1,0.0,-20.99609375,-18.06640625,-5.37109375,0.0,0
1586278835.6219602,121,1,-4.8828125,-25.390625,-19.53125,-19.53125,0.0,0
1586278835.6258664,121,1,-12.20703125,-17.08984375,-51.7578125,-20.99609375,0.0,0
1586278835.6297727,121,1,-15.625,-29.296875,-41.015625,-21.97265625,0.0,0
1586278835.633679,121,1,-21.484375,-39.55078125,-19.53125,-11.71875,0.0,0
1586278835.6375852,121,1,-25.87890625,-18.06640625,-12.20703125,-18.06640625,0.0,0
1586278835.6414914,121,1,-20.99609375,-4.8828125,-13.671875,-33.69140625,0.0,0
1586278835.6453977,121,1,-18.5546875,-19.04296875,-11.71875,-32.71484375,0.0,0
1586278835.649304,121,1,-11.71875,-17.08984375,-2.44140625,-18.5546875,0.0,0
1586278835.6532102,121,1,-12.6953125,-14.6484375,-38.57421875,-7.8125,0.0,0
1586278835.6571164,121,1,-25.390625,-21.484375,-55.6640625,-13.671875,0.0,0
1586278835.6610227,121,1,-25.87890625,-22.4609375,-17.08984375,-23.4375,0.0,0
1586278835.664929,121,1,-25.87890625,-25.390625,11.71875,-27.34375,0.0,0
1586278835.6688352,121,1,-32.2265625,-33.69140625,-12.20703125,-17.578125,0.0,0
1586278835.6727414,121,1,-33.69140625,-33.69140625,-42.96875,-9.765625,0.0,0
1586278835.6766477,121,1,-25.87890625,-37.109375,-35.64453125,-14.6484375,0.0,0
1586278835.680554,121,1,-30.2734375,-32.71484375,-25.87890625,-24.90234375,0.0,0
1586278835.6844602,121,1,-33.69140625,-17.08984375,-40.0390625,-33.203125,0.0,0
1586278835.6883664,121,1,-24.4140625,-26.85546875,-41.015625,-29.296875,0.0,0
1586278835.6922727,121,1,-15.625,-27.34375,-32.71484375,-12.20703125,0.0,0
1586278835.696179,121,1,-8.7890625,-21.97265625,-13.18359375,2.44140625,0.0,0
1586278835.7000852,121,1,-11.23046875,-30.76171875,0.9765625,-7.32421875,0.0,0
1586278835.7039914,121,1,-17.578125,-36.62109375,-5.859375,-21.97265625,0.0,0
1586278835.7078977,121,1,-15.13671875,-32.71484375,-33.69140625,-23.92578125,0.0,0
1586278835.711804,121,1,-5.37109375,-18.5546875,-23.4375,-16.11328125,0.0,0
1586278835.7157102,121,1,-6.34765625,-24.90234375,-16.11328125,-9.765625,0.0,0
1586278835.7196164,121,1,-18.06640625,-26.3671875,-46.875,-23.4375,0.0,0
1586278835.7235227,121,1,-27.83203125,-17.578125,-45.8984375,-36.62109375,0.0,0
1586278835.727429,121,1,-31.73828125,-40.52734375,-32.71484375,-34.66796875,0.0,0
1586278835.7313352,121,1,-38.57421875,-42.48046875,-35.15625,-32.71484375,0.0,0
1586278835.7352414,121,1,-33.203125,-20.99609375,-46.875,-26.3671875,0.0,0
1586278835.7391477,121,1,-38.0859375,-20.01953125,-49.8046875,-27.34375,0.0,0
