timestamps,words,terms,TP9,AF7,AF8,TP10,Right AUX,Marker
1586278047.946179,1,1,0.0,-0.48828125,0.0,0.0,0.0,0
1586278047.9500852,1,1,0.0,0.0,-1.953125,0.0,0.0,0
1586278047.9539914,1,1,-0.48828125,0.48828125,4.39453125,-1.46484375,0.0,0
1586278047.9578977,1,1,0.9765625,-2.44140625,-9.27734375,3.41796875,0.0,0
1586278047.961804,1,1,-2.9296875,13.18359375,15.13671875,-14.6484375,0.0,0
1586278047.9657102,1,1,-2.9296875,28.80859375,56.640625,-24.4140625,0.0,0
1586278047.9696164,1,1,14.16015625,33.203125,-0.9765625,16.6015625,0.0,0
1586278047.9735227,1,1,16.6015625,35.15625,-15.625,27.34375,0.0,0
1586278047.977429,1,1,-5.37109375,14.16015625,-9.27734375,-12.20703125,0.0,0
1586278047.9813352,1,1,-17.08984375,16.11328125,-19.53125,-46.875,0.0,0
1586278047.9852414,1,1,0.9765625,43.45703125,-20.01953125,-36.1328125,0.0,0
1586278047.9891477,1,1,19.04296875,53.7109375,-11.23046875,0.0,0.0,0
1586278047.993054,1,1,12.6953125,36.62109375,0.0,23.92578125,0.0,0
1586278047.9969602,1,1,-8.7890625,25.87890625,-6.34765625,-14.16015625,0.0,0
1586278048.0008664,1,1,-16.11328125,34.66796875,-16.6015625,-60.546875,0.0,0
1586278048.0047727,1,1,5.859375,40.0390625,-13.671875,-28.80859375,0.0,0
1586278048.008679,1,1,23.92578125,37.109375,-12.6953125,24.90234375,0.0,0
1586278048.0125852,1,1,27.34375,26.3671875,-22.4609375,39.55078125,0.0,0
1586278048.0164914,1,1,11.71875,29.78515625,-26.3671875,9.765625,0.0,0
1586278048.0203977,1,1,-9.27734375,33.203125,-11.71875,-30.76171875,0.0,0
1586278048.024304,1,1,-10.7421875,34.1796875,-11.71875,-32.2265625,0.0,0
1586278048.0282102,1,1,11.71875,31.73828125,-22.4609375,10.25390625,0.0,0
1586278048.0321164,1,1,27.83203125,29.296875,-22.4609375,42.96875,0.0,0
1586278048.0360227,1,1,15.625,29.296875,-16.11328125,18.5546875,0.0,0
1586278048.039929,1,1,-8.7890625,29.78515625,-38.0859375,-32.71484375,0.0,0
1586278048.0438352,1,1,-10.25390625,29.78515625,-51.26953125,-33.69140625,0.0,0
1586278048.0477414,1,1,23.4375,6.34765625,-22.94921875,11.23046875,0.0,0
1586278048.0516477,1,1,41.9921875,-11.23046875,-1.953125,51.7578125,0.0,0
1586278048.055554,1,1,4.8828125,27.83203125,-3.41796875,17.08984375,0.0,0
1586278048.0594602,1,1,-15.625,48.33984375,0.0,-34.66796875,0.0,0
1586278048.0633664,1,1,-1.46484375,27.83203125,-12.20703125,-30.2734375,0.0,0
1586278048.0672727,1,1,11.71875,22.4609375,-26.85546875,0.0,0.0,0
1586278048.071179,1,1,12.6953125,31.73828125,-26.3671875,23.92578125,0.0,0
1586278048.0750852,1,1,6.34765625,29.296875,-20.99609375,20.01953125,0.0,0
1586278048.0789914,1,1,-3.41796875,17.578125,-13.18359375,-20.01953125,0.0,0
1586278048.0828977,1,1,-1.46484375,25.87890625,-14.6484375,-41.50390625,0.0,0
1586278048.086804,1,1,18.06640625,32.71484375,-13.18359375,9.27734375,0.0,0
1586278048.0907102,1,1,20.01953125,19.53125,-22.94921875,55.6640625,0.0,0
1586278048.0946164,1,1,3.41796875,11.23046875,-22.94921875,56.15234375,0.0,0
1586278048.0985227,1,1,-25.390625,27.83203125,-20.5078125,0.9765625,0.0,0
1586278048.102429,1,1,-39.55078125,31.25,-23.92578125,-38.0859375,0.0,0
1586278048.1063352,1,1,-6.8359375,12.6953125,-12.6953125,3.90625,0.0,0
1586278048.1102414,1,1,24.4140625,13.18359375,-11.23046875,45.41015625,0.0,0
1586278048.1141477,1,1,12.6953125,27.83203125,-16.11328125,43.45703125,0.0,0
1586278048.118054,1,1,-13.671875,26.3671875,-8.7890625,-3.41796875,0.0,0
1586278048.1219602,1,1,-14.16015625,28.3203125,-7.8125,-42.48046875,0.0,0
1586278048.1258664,1,1,-4.8828125,32.71484375,-10.7421875,-16.11328125,0.0,0
1586278048.1297727,1,1,5.859375,14.16015625,-16.11328125,19.53125,0.0,0
1586278048.133679,1,1,5.37109375,5.859375,-23.92578125,20.5078125,0.0,0
1586278048.1375852,1,1,-19.04296875,5.859375,-18.5546875,-10.25390625,0.0,0
1586278048.1414914,1,1,-28.3203125,7.32421875,-7.8125,-34.1796875,0.0,0
1586278048.1453977,1,1,-22.4609375,27.34375,-2.9296875,-20.99609375,0.0,0
1586278048.149304,1,1,-2.44140625,26.3671875,-10.7421875,11.71875,0.0,0
1586278048.1532102,1,1,17.08984375,15.625,-5.859375,39.55078125,0.0,0
1586278048.1571164,1,1,-0.9765625,31.73828125,-2.44140625,1.953125,0.0,0
1586278048.1610227,1,1,-29.296875,37.59765625,-11.71875,-54.19921875,0.0,0
1586278048.164929,1,1,-18.5546875,28.80859375,-14.16015625,-42.48046875,0.0,0
1586278048.1688352,1,1,6.8359375,24.90234375,-16.11328125,21.97265625,0.0,0
1586278048.1727414,1,1,8.7890625,18.5546875,-9.765625,45.41015625,0.0,0
1586278048.1766477,1,1,-7.32421875,10.25390625,-9.27734375,1.953125,0.0,0
1586278048.180554,1,1,-38.57421875,6.8359375,-26.85546875,-43.9453125,0.0,0
1586278048.1844602,1,1,-21.97265625,19.04296875,-17.08984375,-12.6953125,0.0,0
1586278048.1883664,1,1,8.7890625,15.13671875,-7.8125,37.59765625,0.0,0
1586278048.1922727,1,1,-3.90625,9.765625,-14.16015625,28.3203125,0.0,0
1586278048.196179,1,1,-9.765625,10.7421875,-11.23046875,10.7421875,0.0,0
1586278048.2000852,1,1,-10.7421875,12.20703125,-12.6953125,-15.625,0.0,0
1586278048.2039914,1,1,-5.859375,4.39453125,-19.04296875,-16.6015625,0.0,0
1586278048.2078977,1,1,4.39453125,14.6484375,-20.5078125,13.671875,0.0,0
1586278048.211804,1,1,2.9296875,23.4375,-20.01953125,33.203125,0.0,0
1586278048.2157102,1,1,-13.671875,7.32421875,-22.4609375,10.25390625,0.0,0
1586278048.2196164,1,1,-28.3203125,13.18359375,-16.6015625,-26.85546875,0.0,0
1586278048.2235227,1,1,-20.99609375,23.4375,-14.16015625,-21.97265625,0.0,0
1586278048.227429,1,1,3.41796875,10.25390625,-14.16015625,9.27734375,0.0,0
1586278048.2313352,1,1,24.4140625,16.11328125,-8.30078125,52.734375,0.0,0
1586278048.2352414,1,1,2.44140625,24.4140625,-4.8828125,31.25,0.0,0
1586278048.2391477,1,1,-20.5078125,19.04296875,-11.23046875,-30.76171875,0.0,0
1586278048.243054,1,1,-11.23046875,16.11328125,-20.99609375,-35.15625,0.0,0
1586278048.2469602,1,1,5.859375,13.671875,-29.296875,0.48828125,0.0,0
1586278048.2508664,1,1,13.671875,16.6015625,-31.25,27.34375,0.0,0
1586278048.2547727,1,1,1.953125,27.34375,-27.83203125,16.6015625,0.0,0
1586278048.258679,1,1,-22.94921875,26.85546875,-24.4140625,-24.90234375,0.0,0
1586278048.2625852,1,1,-29.296875,20.01953125,-23.4375,-48.828125,0.0,0
1586278048.2664914,1,1,-10.25390625,24.90234375,-21.484375,-20.99609375,0.0,0
1586278048.2703977,1,1,1.46484375,34.66796875,-19.04296875,28.80859375,0.0,0
1586278048.274304,1,1,-1.953125,42.96875,-15.625,42.48046875,0.0,0
1586278048.2782102,1,1,-22.94921875,51.7578125,-18.5546875,-5.859375,0.0,0
1586278048.2821164,1,1,-40.0390625,52.24609375,-22.94921875,-42.48046875,0.0,0
1586278048.2860227,1,1,-25.87890625,36.62109375,-19.04296875,-21.484375,0.0,0
1586278048.289929,1,1,-5.37109375,29.78515625,-19.53125,13.18359375,0.0,0
1586278048.2938352,1,1,-4.39453125,32.2265625,-17.08984375,32.2265625,0.0,0
1586278048.2977414,1,1,-19.53125,42.96875,-4.8828125,0.48828125,0.0,0
1586278048.3016477,1,1,-38.0859375,58.59375,-7.8125,-34.66796875,0.0,0
1586278048.305554,1,1,-17.08984375,57.6171875,-19.53125,-20.01953125,0.0,0
1586278048.3094602,1,1,10.25390625,55.17578125,-19.53125,30.2734375,0.0,0
1586278048.3133664,1,1,4.39453125,54.19921875,-11.23046875,46.875,0.0,0
1586278048.3172727,1,1,-16.6015625,51.7578125,-16.11328125,-6.34765625,0.0,0
1586278048.321179,1,1,-26.3671875,45.41015625,-20.01953125,-44.921875,0.0,0
1586278048.3250852,1,1,-19.04296875,33.69140625,-24.4140625,-36.1328125,0.0,0
1586278048.3289914,1,1,-12.20703125,31.73828125,-28.3203125,1.953125,0.0,0
1586278048.3328977,1,1,-8.30078125,37.109375,-26.85546875,28.3203125,0.0,0
1586278048.336804,1,1,-19.04296875,35.64453125,-30.2734375,-11.23046875,0.0,0
1586278048.3407102,1,1,-24.90234375,28.3203125,-21.484375,-49.8046875,0.0,0
1586278048.3446164,1,1,-9.27734375,30.76171875,-18.5546875,-39.0625,0.0,0
1586278048.3485227,1,1,15.13671875,49.31640625,-16.6015625,3.90625,0.0,0
1586278048.352429,1,1,16.6015625,44.43359375,-19.53125,35.15625,0.0,0
1586278048.3563352,1,1,-2.44140625,32.2265625,-29.296875,4.8828125,0.0,0
1586278048.3602414,1,1,-20.5078125,44.43359375,-15.625,-43.45703125,0.0,0
1586278048.3641477,1,1,-12.20703125,39.55078125,-22.4609375,-21.97265625,0.0,0
1586278048.368054,1,1,-0.48828125,41.015625,-36.1328125,18.5546875,0.0,0
1586278048.3719602,1,1,-5.859375,45.41015625,-20.5078125,17.578125,0.0,0
1586278048.3758664,1,1,-16.11328125,29.78515625,-24.4140625,-8.7890625,0.0,0
1586278048.3797727,1,1,-34.1796875,27.83203125,-25.87890625,-46.38671875,0.0,0
1586278048.383679,1,1,-27.34375,25.390625,-12.20703125,-44.43359375,0.0,0
1586278048.3875852,1,1,-7.32421875,16.11328125,-8.7890625,-5.37109375,0.0,0
1586278048.3914914,1,1,-3.90625,8.7890625,-23.92578125,28.3203125,0.0,0
1586278048.3953977,1,1,-18.06640625,9.27734375,-23.92578125,7.32421875,0.0,0
1586278048.399304,1,1,-42.48046875,5.37109375,-19.04296875,-43.9453125,0.0,0
1586278048.4032102,1,1,-48.33984375,4.39453125,-21.97265625,-54.19921875,0.0,0
1586278048.4071164,1,1,-19.04296875,18.06640625,-22.94921875,-12.20703125,0.0,0
1586278048.4110227,1,1,5.37109375,20.01953125,-22.4609375,41.50390625,0.0,0
1586278048.414929,1,1,-18.06640625,16.11328125,-15.625,17.08984375,0.0,0
1586278048.4188352,1,1,-43.9453125,9.765625,-9.765625,-44.43359375,0.0,0
1586278048.4227414,1,1,-28.80859375,2.44140625,-3.90625,-47.8515625,0.0,0
1586278048.4266477,1,1,-8.30078125,2.44140625,-4.8828125,-8.7890625,0.0,0
1586278048.430554,1,1,3.90625,14.6484375,-17.578125,28.80859375,0.0,0
1586278048.4344602,1,1,0.9765625,25.87890625,-18.5546875,11.71875,0.0,0
1586278048.4383664,1,1,-17.578125,11.23046875,-25.87890625,-33.203125,0.0,0
1586278048.4422727,1,1,-24.90234375,0.0,-36.1328125,-59.5703125,0.0,0
1586278048.446179,1,1,-11.23046875,3.90625,-31.73828125,-38.57421875,0.0,0
1586278048.4500852,1,1,4.39453125,12.20703125,-22.4609375,1.953125,0.0,0
1586278048.4539914,1,1,8.7890625,11.23046875,-11.23046875,28.3203125,0.0,0
1586278048.4578977,1,1,-11.71875,12.20703125,-12.20703125,2.44140625,0.0,0
1586278048.461804,1,1,-31.25,14.6484375,-20.01953125,-44.43359375,0.0,0
1586278048.4657102,1,1,-13.671875,5.37109375,-17.578125,-30.2734375,0.0,0
1586278048.4696164,1,1,10.25390625,0.48828125,-8.7890625,12.20703125,0.0,0
1586278048.4735227,1,1,14.16015625,15.13671875,-9.27734375,33.69140625,0.0,0
1586278048.477429,1,1,-0.9765625,15.625,-8.7890625,-5.859375,0.0,0
1586278048.4813352,1,1,-17.08984375,11.71875,-4.39453125,-46.38671875,0.0,0
1586278048.4852414,1,1,-4.39453125,13.18359375,-7.8125,-32.71484375,0.0,0
1586278048.4891477,1,1,13.18359375,7.8125,-14.6484375,13.671875,0.0,0
1586278048.493054,1,1,6.34765625,9.765625,-29.78515625,25.87890625,0.0,0
1586278048.4969602,1,1,-14.16015625,3.90625,-28.80859375,-12.6953125,0.0,0
1586278048.5008664,1,1,-3.90625,-5.37109375,-14.6484375,-13.671875,0.0,0
1586278048.5047727,1,1,3.41796875,0.0,-17.578125,-18.06640625,0.0,0
1586278048.508679,1,1,3.90625,8.30078125,-23.92578125,-1.953125,0.0,0
1586278048.5125852,1,1,9.765625,10.25390625,-29.78515625,35.64453125,0.0,0
1586278048.5164914,1,1,-10.7421875,10.25390625,-36.1328125,2.9296875,0.0,0
1586278048.5203977,1,1,-38.57421875,0.0,-25.87890625,-45.8984375,0.0,0
1586278048.524304,1,1,-29.78515625,-0.9765625,-15.625,-44.43359375,0.0,0
1586278048.5282102,1,1,3.90625,1.953125,-7.8125,7.32421875,0.0,0
1586278048.5321164,1,1,8.7890625,-0.48828125,-6.8359375,46.875,0.0,0
1586278048.5360227,1,1,-13.671875,3.90625,-23.92578125,13.671875,0.0,0
1586278048.539929,1,1,-27.34375,1.46484375,-29.296875,-50.29296875,0.0,0
1586278048.5438352,1,1,-9.27734375,-3.90625,-24.90234375,-41.9921875,0.0,0
1586278048.5477414,1,1,15.13671875,-9.27734375,-26.85546875,22.4609375,0.0,0
1586278048.5516477,1,1,21.484375,1.953125,-20.5078125,44.921875,0.0,0
1586278048.555554,1,1,2.9296875,14.16015625,-23.92578125,13.671875,0.0,0
1586278048.5594602,1,1,-16.11328125,-0.9765625,-27.34375,-20.01953125,0.0,0
1586278048.5633664,1,1,-10.25390625,-0.9765625,-15.625,-37.59765625,0.0,0
1586278048.5672727,1,1,2.44140625,10.25390625,-3.41796875,-4.8828125,0.0,0
1586278048.571179,1,1,11.71875,9.765625,-4.8828125,31.25,0.0,0
1586278048.5750852,1,1,5.37109375,1.46484375,-10.7421875,25.87890625,0.0,0
1586278048.5789914,1,1,-22.94921875,5.859375,-0.48828125,-17.08984375,0.0,0
1586278048.5828977,1,1,-33.203125,6.34765625,-5.859375,-43.9453125,0.0,0
1586278048.586804,1,1,-8.7890625,-6.8359375,-9.27734375,-13.18359375,0.0,0
1586278048.5907102,1,1,18.06640625,-3.90625,-11.71875,33.69140625,0.0,0
1586278048.5946164,1,1,4.8828125,4.8828125,-13.671875,30.76171875,0.0,0
1586278048.5985227,1,1,-17.08984375,20.99609375,-14.16015625,-17.578125,0.0,0
1586278048.602429,1,1,-16.6015625,23.4375,-13.671875,-35.64453125,0.0,0
1586278048.6063352,1,1,2.9296875,14.6484375,-9.765625,4.39453125,0.0,0
1586278048.6102414,1,1,27.83203125,12.6953125,-18.5546875,51.7578125,0.0,0
1586278048.6141477,1,1,27.83203125,21.484375,-19.53125,47.36328125,0.0,0
1586278048.618054,1,1,5.37109375,36.1328125,-8.30078125,0.0,0.0,0
1586278048.6219602,1,1,0.0,29.296875,-2.44140625,-18.06640625,0.0,0
1586278048.6258664,1,1,9.27734375,19.04296875,-0.48828125,1.953125,0.0,0
1586278048.6297727,1,1,18.06640625,16.6015625,0.9765625,24.90234375,0.0,0
1586278048.633679,1,1,18.06640625,11.71875,1.46484375,34.66796875,0.0,0
1586278048.6375852,1,1,-3.90625,11.71875,-5.37109375,2.44140625,0.0,0
1586278048.6414914,1,1,-23.4375,5.37109375,-9.27734375,-42.96875,0.0,0
1586278048.6453977,1,1,-5.859375,1.46484375,-12.6953125,-30.76171875,0.0,0
1586278048.649304,1,1,13.18359375,8.7890625,-26.85546875,13.671875,0.0,0
1586278048.6532102,1,1,7.32421875,18.5546875,-21.484375,22.4609375,0.0,0
1586278048.6571164,1,1,-12.6953125,27.34375,-8.7890625,-7.8125,0.0,0
1586278048.6610227,1,1,-13.671875,21.97265625,0.0,-30.2734375,0.0,0
1586278048.664929,1,1,14.16015625,14.16015625,9.765625,4.8828125,0.0,0
1586278048.6688352,1,1,34.1796875,8.30078125,16.11328125,57.6171875,0.0,0
1586278048.6727414,1,1,30.2734375,-2.44140625,3.90625,72.265625,0.0,0
1586278048.6766477,1,1,15.13671875,6.8359375,-9.27734375,42.48046875,0.0,0
1586278048.680554,1,1,3.90625,24.90234375,2.44140625,10.25390625,0.0,0
1586278048.6844602,1,1,6.34765625,30.2734375,-7.32421875,1.953125,0.0,0
1586278048.6883664,1,1,16.6015625,25.87890625,-6.34765625,14.16015625,0.0,0
1586278048.6922727,1,1,22.4609375,8.30078125,9.27734375,50.29296875,0.0,0
1586278048.696179,1,1,0.9765625,13.18359375,-8.30078125,25.87890625,0.0,0
1586278048.7000852,1,1,-31.73828125,20.5078125,-18.5546875,-35.64453125,0.0,0
1586278048.7039914,1,1,-20.99609375,8.7890625,-8.7890625,-42.96875,0.0,0
1586278048.7078977,1,1,15.13671875,3.90625,-5.859375,4.8828125,0.0,0
1586278048.711804,1,1,30.76171875,9.27734375,-13.18359375,39.55078125,0.0,0
1586278048.7157102,1,1,10.25390625,13.18359375,-14.16015625,15.625,0.0,0
1586278048.7196164,1,1,-15.13671875,7.32421875,-15.13671875,-27.34375,0.0,0
1586278048.7235227,1,1,-6.34765625,-5.859375,-13.671875,-30.2734375,0.0,0
1586278048.727429,1,1,18.06640625,7.32421875,-4.8828125,15.13671875,0.0,0
1586278048.7313352,1,1,19.04296875,33.69140625,-11.23046875,34.1796875,0.0,0
1586278048.7352414,1,1,7.32421875,28.3203125,-11.71875,14.6484375,0.0,0
1586278048.7391477,1,1,-10.7421875,9.27734375,-8.7890625,-16.11328125,0.0,0
1586278048.743054,1,1,-18.5546875,15.625,-14.16015625,-23.92578125,0.0,0
1586278048.7469602,1,1,5.37109375,30.2734375,-8.30078125,16.6015625,0.0,0
1586278048.7508664,1,1,19.53125,19.53125,-0.9765625,52.24609375,0.0,0
1586278048.7547727,1,1,12.20703125,3.90625,7.8125,35.15625,0.0,0
1586278048.758679,1,1,-4.39453125,8.30078125,2.44140625,-9.765625,0.0,0
1586278048.7625852,1,1,-12.6953125,16.6015625,-10.25390625,-27.83203125,0.0,0
1586278048.7664914,1,1,-4.8828125,20.99609375,-0.9765625,0.48828125,0.0,0
1586278048.7703977,1,1,11.23046875,18.5546875,2.9296875,46.875,0.0,0
1586278048.774304,1,1,-8.7890625,8.7890625,-3.90625,32.71484375,0.0,0
1586278048.7782102,1,1,-46.875,6.8359375,-11.71875,-36.62109375,0.0,0
1586278048.7821164,1,1,-33.203125,0.48828125,-7.32421875,-65.91796875,0.0,0
1586278048.7860227,1,1,-11.71875,-12.6953125,-10.25390625,-33.69140625,0.0,0
1586278048.789929,1,1,-5.37109375,-1.953125,-15.13671875,13.18359375,0.0,0
1586278048.7938352,1,1,-2.44140625,21.484375,-10.25390625,9.765625,0.0,0
1586278048.7977414,1,1,-14.16015625,32.2265625,-16.11328125,-29.296875,0.0,0
1586278048.8016477,1,1,-15.625,23.92578125,-22.4609375,-51.26953125,0.0,0
1586278048.805554,1,1,6.8359375,19.04296875,-24.90234375,-22.94921875,0.0,0
1586278048.8094602,1,1,28.3203125,20.99609375,-29.296875,26.3671875,0.0,0
1586278048.8133664,1,1,26.85546875,11.71875,-23.92578125,46.875,0.0,0
1586278048.8172727,1,1,0.9765625,5.37109375,-18.5546875,10.7421875,0.0,0
1586278048.821179,1,1,-25.390625,8.30078125,-25.87890625,-45.41015625,0.0,0
1586278048.8250852,1,1,-11.71875,6.8359375,-15.625,-28.3203125,0.0,0
1586278048.8289914,1,1,10.7421875,-5.37109375,-1.953125,30.76171875,0.0,0
1586278048.8328977,1,1,6.34765625,4.8828125,-3.41796875,40.0390625,0.0,0
1586278048.836804,1,1,-12.20703125,17.578125,-10.7421875,2.44140625,0.0,0
1586278048.8407102,1,1,-28.80859375,6.8359375,-24.4140625,-24.90234375,0.0,0
1586278048.8446164,1,1,-15.13671875,11.23046875,-22.94921875,-17.578125,0.0,0
1586278048.8485227,1,1,6.8359375,19.04296875,-15.13671875,17.578125,0.0,0
1586278048.852429,1,1,4.39453125,-1.46484375,-14.16015625,35.64453125,0.0,0
1586278048.8563352,1,1,-8.30078125,-2.9296875,-5.37109375,16.6015625,0.0,0
1586278048.8602414,1,1,-15.13671875,9.765625,-10.7421875,-12.20703125,0.0,0
1586278048.8641477,1,1,-11.71875,7.8125,-18.06640625,-27.34375,0.0,0
1586278048.868054,1,1,-8.30078125,12.6953125,-20.01953125,-9.765625,0.0,0
1586278048.8719602,1,1,1.46484375,-4.39453125,-19.04296875,35.64453125,0.0,0
1586278048.8758664,1,1,0.0,-0.48828125,-1.46484375,14.6484375,0.0,0
1586278048.8797727,1,1,-25.390625,21.97265625,-4.8828125,-44.921875,0.0,0
1586278048.883679,1,1,-31.25,21.484375,-12.6953125,-60.05859375,0.0,0
1586278048.8875852,1,1,-5.859375,19.53125,-29.78515625,-23.92578125,0.0,0
1586278048.8914914,1,1,7.32421875,2.9296875,-30.76171875,20.01953125,0.0,0
1586278048.8953977,1,1,0.9765625,19.53125,-1.46484375,5.859375,0.0,0
1586278048.899304,1,1,-10.7421875,32.2265625,-3.90625,-36.1328125,0.0,0
1586278048.9032102,1,1,-3.41796875,20.01953125,-17.578125,-32.71484375,0.0,0
1586278048.9071164,1,1,16.11328125,25.87890625,-22.4609375,9.27734375,0.0,0
1586278048.9110227,1,1,23.92578125,27.83203125,-20.01953125,28.80859375,0.0,0
1586278048.914929,1,1,12.6953125,22.94921875,-10.25390625,16.11328125,0.0,0
1586278048.9188352,1,1,-14.6484375,6.34765625,-10.25390625,-21.484375,0.0,0
1586278048.9227414,1,1,-20.99609375,8.30078125,-9.27734375,-36.1328125,0.0,0
1586278048.9266477,1,1,4.39453125,20.99609375,-5.37109375,-14.16015625,0.0,0
1586278048.930554,1,1,23.4375,19.53125,-11.71875,20.5078125,0.0,0
1586278048.9344602,1,1,8.7890625,10.7421875,-7.8125,30.76171875,0.0,0
1586278048.9383664,1,1,-21.484375,0.0,-19.53125,-13.671875,0.0,0
1586278048.9422727,1,1,-34.1796875,-8.30078125,-21.97265625,-41.015625,0.0,0
1586278048.946179,1,1,-4.39453125,-15.13671875,-5.859375,-2.44140625,0.0,0
1586278048.9500852,1,1,23.4375,1.953125,-13.671875,45.8984375,0.0,0
1586278048.9539914,1,1,14.6484375,22.4609375,-9.27734375,37.109375,0.0,0
1586278048.9578977,1,1,-18.5546875,26.85546875,-6.34765625,-20.5078125,0.0,0
1586278048.961804,1,1,-31.25,19.04296875,-15.13671875,-45.41015625,0.0,0
1586278048.9657102,1,1,-13.18359375,10.7421875,-29.296875,-19.04296875,0.0,0
1586278048.9696164,1,1,11.71875,0.9765625,-34.1796875,10.7421875,0.0,0
1586278048.9735227,1,1,13.18359375,-4.39453125,-24.4140625,22.4609375,0.0,0
1586278048.977429,1,1,-8.7890625,2.9296875,-22.4609375,-2.9296875,0.0,0
1586278048.9813352,1,1,-25.87890625,9.27734375,-20.5078125,-41.50390625,0.0,0
1586278048.9852414,1,1,-18.5546875,16.6015625,-10.7421875,-20.99609375,0.0,0
1586278048.9891477,1,1,4.39453125,20.01953125,-15.13671875,29.296875,0.0,0
1586278048.993054,1,1,1.953125,19.04296875,-18.06640625,37.59765625,0.0,0
1586278048.9969602,1,1,-13.18359375,18.06640625,-0.9765625,0.9765625,0.0,0
1586278049.0008664,1,1,-21.97265625,20.5078125,-3.41796875,-40.52734375,0.0,0
1586278049.0047727,1,1,-13.18359375,25.87890625,-19.04296875,-40.0390625,0.0,0
1586278049.008679,1,1,11.71875,3.41796875,-18.06640625,4.39453125,0.0,0
1586278049.0125852,1,1,18.5546875,-16.11328125,-9.765625,38.0859375,0.0,0
1586278049.0164914,1,1,-6.8359375,12.6953125,-9.765625,12.20703125,0.0,0
1586278049.0203977,1,1,-21.97265625,30.76171875,-5.859375,-32.2265625,0.0,0
1586278049.024304,1,1,-23.4375,25.390625,-10.25390625,-42.96875,0.0,0
1586278049.0282102,1,1,-14.16015625,27.34375,-13.671875,-8.7890625,0.0,0
1586278049.0321164,1,1,-1.953125,30.2734375,-15.13671875,20.01953125,0.0,0
1586278049.0360227,1,1,-13.18359375,24.4140625,-5.859375,0.48828125,0.0,0
1586278049.039929,1,1,-27.83203125,18.5546875,-16.6015625,-41.50390625,0.0,0
1586278049.0438352,1,1,-27.83203125,5.37109375,-29.296875,-45.8984375,0.0,0
1586278049.0477414,1,1,-16.6015625,7.32421875,-7.8125,-1.953125,0.0,0
1586278049.0516477,1,1,-8.30078125,4.8828125,-5.37109375,32.2265625,0.0,0
1586278049.055554,1,1,-10.7421875,-11.71875,-23.92578125,33.69140625,0.0,0
1586278049.0594602,1,1,-32.71484375,32.71484375,-20.01953125,-24.90234375,0.0,0
1586278049.0633664,1,1,-44.43359375,48.828125,-3.41796875,-68.359375,0.0,0
1586278049.0672727,1,1,-24.4140625,32.71484375,-4.8828125,-22.94921875,0.0,0
1586278049.071179,1,1,-6.34765625,29.78515625,-13.18359375,13.671875,0.0,0
1586278049.0750852,1,1,-12.20703125,26.85546875,-10.25390625,6.8359375,0.0,0
1586278049.0789914,1,1,-26.3671875,25.87890625,-1.46484375,-30.76171875,0.0,0
1586278049.0828977,1,1,-20.5078125,20.01953125,-5.859375,-45.8984375,0.0,0
1586278049.086804,1,1,-6.34765625,15.625,-10.7421875,-14.16015625,0.0,0
1586278049.0907102,1,1,9.27734375,24.90234375,-9.765625,20.99609375,0.0,0
1586278049.0946164,1,1,-0.9765625,26.3671875,-9.27734375,21.484375,0.0,0
1586278049.0985227,1,1,-31.25,19.04296875,-8.7890625,-20.5078125,0.0,0
1586278049.102429,1,1,-28.3203125,13.671875,-7.32421875,-42.48046875,0.0,0
1586278049.1063352,1,1,-13.671875,19.53125,-13.671875,-28.80859375,0.0,0
1586278049.1102414,1,1,-2.44140625,37.109375,-23.92578125,13.18359375,0.0,0
1586278049.1141477,1,1,-1.953125,44.43359375,-16.11328125,40.0390625,0.0,0
1586278049.118054,1,1,-15.13671875,35.15625,2.44140625,3.90625,0.0,0
1586278049.1219602,1,1,-17.578125,26.85546875,0.9765625,-34.66796875,0.0,0
1586278049.1258664,1,1,-2.44140625,31.73828125,-0.48828125,-8.7890625,0.0,0
1586278049.1297727,1,1,2.9296875,20.01953125,4.39453125,37.59765625,0.0,0
1586278049.133679,1,1,-11.71875,12.6953125,4.8828125,44.921875,0.0,0
1586278049.1375852,1,1,-28.80859375,16.11328125,11.71875,8.30078125,0.0,0
1586278049.1414914,1,1,-41.015625,13.18359375,5.859375,-21.484375,0.0,0
1586278049.1453977,1,1,-28.80859375,17.08984375,-3.90625,0.9765625,0.0,0
1586278049.149304,1,1,-11.71875,15.625,-2.44140625,27.34375,0.0,0
1586278049.1532102,1,1,-14.16015625,16.11328125,-3.41796875,24.90234375,0.0,0
1586278049.1571164,1,1,-25.87890625,7.32421875,0.9765625,1.46484375,0.0,0
1586278049.1610227,1,1,-29.78515625,5.859375,-1.46484375,-31.73828125,0.0,0
1586278049.164929,1,1,-9.765625,16.11328125,-10.7421875,-29.78515625,0.0,0
1586278049.1688352,1,1,14.16015625,17.578125,-3.41796875,13.671875,0.0,0
1586278049.1727414,1,1,20.01953125,16.6015625,0.9765625,44.43359375,0.0,0
1586278049.1766477,1,1,-0.48828125,15.13671875,-10.7421875,9.765625,0.0,0
1586278049.180554,1,1,-17.08984375,17.578125,-11.23046875,-39.0625,0.0,0
1586278049.1844602,1,1,-5.859375,15.13671875,-4.39453125,-26.3671875,0.0,0
1586278049.1883664,1,1,14.6484375,18.06640625,-0.9765625,22.4609375,0.0,0
1586278049.1922727,1,1,20.5078125,18.06640625,-7.32421875,62.01171875,0.0,0
1586278049.196179,1,1,-8.7890625,16.11328125,-15.625,24.90234375,0.0,0
1586278049.2000852,1,1,-33.69140625,10.7421875,-14.16015625,-32.71484375,0.0,0
1586278049.2039914,1,1,-25.87890625,5.37109375,-10.25390625,-30.2734375,0.0,0
1586278049.2078977,1,1,-8.7890625,24.4140625,-12.20703125,8.7890625,0.0,0
1586278049.211804,1,1,-1.953125,31.73828125,-5.859375,38.57421875,0.0,0
1586278049.2157102,1,1,-7.32421875,0.9765625,-8.30078125,19.53125,0.0,0
1586278049.2196164,1,1,-21.97265625,-10.25390625,-15.13671875,-20.5078125,0.0,0
1586278049.2235227,1,1,-28.80859375,25.87890625,-4.8828125,-30.2734375,0.0,0
1586278049.227429,1,1,-9.27734375,43.9453125,-13.671875,-0.9765625,0.0,0
1586278049.2313352,1,1,9.765625,42.96875,-25.390625,41.9921875,0.0,0
1586278049.2352414,1,1,-0.9765625,26.3671875,-9.27734375,35.64453125,0.0,0
1586278049.2391477,1,1,-27.34375,9.765625,-4.39453125,-21.97265625,0.0,0
1586278049.243054,1,1,-36.62109375,21.484375,-9.27734375,-56.15234375,0.0,0
1586278049.2469602,1,1,-5.859375,32.71484375,-1.46484375,-21.97265625,0.0,0
1586278049.2508664,1,1,12.20703125,22.4609375,-5.37109375,22.94921875,0.0,0
1586278049.2547727,1,1,0.48828125,13.18359375,0.9765625,20.01953125,0.0,0
1586278049.258679,1,1,-20.01953125,14.6484375,14.16015625,-21.484375,0.0,0
1586278049.2625852,1,1,-27.34375,24.90234375,5.859375,-44.921875,0.0,0
1586278049.2664914,1,1,-12.20703125,33.203125,-9.27734375,-29.78515625,0.0,0
1586278049.2703977,1,1,-1.953125,22.4609375,-8.7890625,10.7421875,0.0,0
1586278049.274304,1,1,-5.859375,22.94921875,-12.20703125,13.671875,0.0,0
1586278049.2782102,1,1,-17.08984375,26.3671875,-13.18359375,-19.04296875,0.0,0
1586278049.2821164,1,1,-27.83203125,21.484375,-8.7890625,-37.109375,0.0,0
1586278049.2860227,1,1,-18.5546875,26.85546875,-7.32421875,-19.04296875,0.0,0
1586278049.289929,1,1,1.46484375,25.87890625,-1.953125,15.625,0.0,0
1586278049.2938352,1,1,4.8828125,27.34375,-3.41796875,29.78515625,0.0,0
1586278049.2977414,1,1,-15.625,34.1796875,-8.7890625,-5.859375,0.0,0
1586278049.3016477,1,1,-33.203125,13.671875,-2.44140625,-54.19921875,0.0,0
1586278049.305554,1,1,-13.18359375,-5.37109375,-3.41796875,-26.85546875,0.0,0
1586278049.3094602,1,1,12.6953125,13.18359375,-14.6484375,33.203125,0.0,0
1586278049.3133664,1,1,14.6484375,28.80859375,-10.7421875,46.38671875,0.0,0
1586278049.3172727,1,1,-5.859375,35.64453125,3.90625,5.859375,0.0,0
1586278049.321179,1,1,-25.87890625,41.015625,-2.44140625,-33.203125,0.0,0
1586278049.3250852,1,1,-24.4140625,33.203125,-15.13671875,-27.34375,0.0,0
1586278049.3289914,1,1,-6.8359375,26.3671875,4.39453125,17.08984375,0.0,0
1586278049.3328977,1,1,-1.953125,14.6484375,9.765625,39.0625,0.0,0
1586278049.336804,1,1,-24.4140625,-2.44140625,3.90625,-2.44140625,0.0,0
1586278049.3407102,1,1,-25.390625,-6.8359375,14.16015625,-24.4140625,0.0,0
1586278049.3446164,1,1,-17.578125,-4.39453125,12.20703125,-22.94921875,0.0,0
1586278049.3485227,1,1,-8.7890625,-1.953125,7.32421875,7.32421875,0.0,0
1586278049.352429,1,1,9.27734375,0.0,7.32421875,55.17578125,0.0,0
1586278049.3563352,1,1,-6.8359375,-0.9765625,11.23046875,43.45703125,0.0,0
1586278049.3602414,1,1,-26.85546875,-8.30078125,16.11328125,-13.18359375,0.0,0
1586278049.3641477,1,1,-27.83203125,-5.859375,4.39453125,-40.0390625,0.0,0
1586278049.368054,1,1,-11.23046875,4.39453125,2.44140625,9.765625,0.0,0
1586278049.3719602,1,1,5.859375,-3.90625,11.71875,52.24609375,0.0,0
1586278049.3758664,1,1,-9.27734375,-4.8828125,2.9296875,27.34375,0.0,0
1586278049.3797727,1,1,-27.34375,5.859375,1.46484375,-24.4140625,0.0,0
1586278049.383679,1,1,-24.90234375,0.9765625,4.8828125,-31.25,0.0,0
1586278049.3875852,1,1,-6.8359375,2.9296875,-1.953125,10.7421875,0.0,0
1586278049.3914914,1,1,-2.9296875,8.7890625,-3.90625,26.3671875,0.0,0
1586278049.3953977,1,1,-11.71875,0.9765625,5.859375,10.7421875,0.0,0
1586278049.399304,1,1,-22.94921875,-8.30078125,-1.953125,-23.4375,0.0,0
1586278049.4032102,1,1,-22.4609375,-20.01953125,-9.765625,-43.9453125,0.0,0
1586278049.4071164,1,1,-1.46484375,2.44140625,-3.41796875,-13.18359375,0.0,0
1586278049.4110227,1,1,8.7890625,32.71484375,-10.7421875,26.3671875,0.0,0
1586278049.414929,1,1,-3.41796875,12.20703125,-13.18359375,13.18359375,0.0,0
1586278049.4188352,1,1,-22.4609375,-4.8828125,-7.8125,-25.390625,0.0,0
1586278049.4227414,1,1,-27.34375,9.765625,-6.8359375,-44.43359375,0.0,0
1586278049.4266477,1,1,-14.6484375,14.16015625,-5.859375,-16.6015625,0.0,0
1586278049.430554,1,1,5.859375,-5.859375,-11.71875,46.875,0.0,0
1586278049.4344602,1,1,-6.34765625,2.44140625,-21.97265625,44.921875,0.0,0
1586278049.4383664,1,1,-27.34375,19.53125,-7.32421875,-13.18359375,0.0,0
1586278049.4422727,1,1,-9.765625,11.23046875,0.48828125,-26.3671875,0.0,0
1586278049.446179,1,1,8.7890625,13.18359375,-12.20703125,-3.90625,0.0,0
1586278049.4500852,1,1,8.7890625,26.85546875,-7.8125,28.3203125,0.0,0
1586278049.4539914,1,1,6.34765625,29.296875,-2.44140625,42.96875,0.0,0
1586278049.4578977,1,1,-6.8359375,26.85546875,-7.8125,15.625,0.0,0
1586278049.461804,1,1,-28.3203125,19.04296875,-17.08984375,-30.2734375,0.0,0
1586278049.4657102,1,1,-14.16015625,7.8125,-11.71875,-24.4140625,0.0,0
1586278049.4696164,1,1,6.34765625,7.32421875,-10.25390625,19.04296875,0.0,0
1586278049.4735227,1,1,10.25390625,12.20703125,-5.859375,31.25,0.0,0
1586278049.477429,1,1,2.44140625,14.6484375,-3.41796875,0.48828125,0.0,0
1586278049.4813352,1,1,-14.6484375,11.71875,-21.484375,-54.19921875,0.0,0
1586278049.4852414,1,1,-8.30078125,15.625,-21.484375,-48.828125,0.0,0
1586278049.4891477,1,1,10.7421875,6.8359375,-9.27734375,12.6953125,0.0,0
1586278049.493054,2,3,15.625,4.8828125,-13.671875,42.96875,0.0,0
1586278049.4969602,2,3,-3.41796875,33.203125,-30.2734375,6.8359375,0.0,0
1586278049.5008664,2,3,-20.01953125,11.71875,-21.97265625,-40.0390625,0.0,0
1586278049.5047727,2,3,-17.08984375,-8.30078125,-8.30078125,-33.69140625,0.0,0
1586278049.508679,2,3,0.48828125,18.06640625,-5.37109375,13.671875,0.0,0
1586278049.5125852,2,3,8.7890625,20.5078125,-2.9296875,43.45703125,0.0,0
1586278049.5164914,2,3,-5.37109375,7.32421875,-6.8359375,8.30078125,0.0,0
1586278049.5203977,2,3,-17.578125,13.18359375,-4.39453125,-28.3203125,0.0,0
1586278049.524304,2,3,-21.97265625,14.16015625,-5.859375,-30.76171875,0.0,0
1586278049.5282102,2,3,-11.71875,7.8125,-18.5546875,-2.9296875,0.0,0
1586278049.5321164,2,3,2.44140625,11.71875,-17.578125,44.43359375,0.0,0
1586278049.5360227,2,3,-14.16015625,3.90625,-3.90625,12.20703125,0.0,0
1586278049.539929,2,3,-28.3203125,19.04296875,-13.671875,-45.41015625,0.0,0
1586278049.5438352,2,3,-22.4609375,22.94921875,-28.3203125,-37.109375,0.0,0
1586278049.5477414,2,3,11.23046875,18.06640625,-18.06640625,20.5078125,0.0,0
1586278049.5516477,2,3,30.2734375,28.3203125,0.0,61.5234375,0.0,0
1586278049.555554,2,3,4.8828125,25.390625,1.46484375,39.0625,0.0,0
1586278049.5594602,2,3,-20.99609375,4.8828125,-7.8125,-15.625,0.0,0
1586278049.5633664,2,3,-17.08984375,-4.39453125,-18.06640625,-31.73828125,0.0,0
1586278049.5672727,2,3,6.8359375,17.578125,-19.53125,15.13671875,0.0,0
1586278049.571179,2,3,8.7890625,33.203125,-19.04296875,41.50390625,0.0,0
1586278049.5750852,2,3,-5.37109375,23.92578125,-13.18359375,21.97265625,0.0,0
1586278049.5789914,2,3,-23.4375,16.11328125,-10.25390625,-15.625,0.0,0
1586278049.5828977,2,3,-20.99609375,24.4140625,-7.8125,-32.2265625,0.0,0
1586278049.586804,2,3,10.25390625,23.4375,-8.7890625,-2.44140625,0.0,0
1586278049.5907102,2,3,20.01953125,18.5546875,0.9765625,39.0625,0.0,0
1586278049.5946164,2,3,5.859375,20.5078125,11.23046875,42.96875,0.0,0
1586278049.5985227,2,3,-10.25390625,19.53125,17.578125,-5.37109375,0.0,0
1586278049.602429,2,3,-13.671875,22.4609375,12.6953125,-27.34375,0.0,0
1586278049.6063352,2,3,2.9296875,17.08984375,-6.8359375,-5.37109375,0.0,0
1586278049.6102414,2,3,25.390625,13.671875,-3.41796875,36.1328125,0.0,0
1586278049.6141477,2,3,22.4609375,25.390625,0.48828125,39.55078125,0.0,0
1586278049.618054,2,3,0.0,13.671875,-6.8359375,-12.20703125,0.0,0
1586278049.6219602,2,3,-9.27734375,7.8125,-4.8828125,-37.109375,0.0,0
1586278049.6258664,2,3,0.9765625,27.34375,-4.39453125,-16.6015625,0.0,0
1586278049.6297727,2,3,12.6953125,26.85546875,2.44140625,28.80859375,0.0,0
1586278049.633679,2,3,10.25390625,20.99609375,8.30078125,48.33984375,0.0,0
1586278049.6375852,2,3,-5.859375,10.7421875,3.41796875,21.484375,0.0,0
1586278049.6414914,2,3,-15.13671875,2.9296875,-3.41796875,-16.11328125,0.0,0
1586278049.6453977,2,3,-1.953125,2.44140625,2.9296875,-9.765625,0.0,0
1586278049.649304,2,3,20.99609375,8.7890625,9.27734375,39.0625,0.0,0
1586278049.6532102,2,3,34.66796875,31.73828125,-3.41796875,61.03515625,0.0,0
1586278049.6571164,2,3,15.625,31.73828125,-7.32421875,37.59765625,0.0,0
1586278049.6610227,2,3,-12.20703125,25.390625,-0.9765625,-16.6015625,0.0,0
1586278049.664929,2,3,-9.27734375,17.08984375,-5.859375,-35.64453125,0.0,0
1586278049.6688352,2,3,16.11328125,14.6484375,-0.48828125,17.08984375,0.0,0
1586278049.6727414,2,3,20.01953125,16.6015625,-0.9765625,42.48046875,0.0,0
1586278049.6766477,2,3,-0.48828125,15.625,-13.18359375,10.25390625,0.0,0
1586278049.680554,2,3,-18.06640625,20.01953125,-16.6015625,-23.92578125,0.0,0
1586278049.6844602,2,3,-13.18359375,25.87890625,-8.30078125,-24.90234375,0.0,0
1586278049.6883664,2,3,13.671875,22.4609375,-2.9296875,3.90625,0.0,0
1586278049.6922727,2,3,30.2734375,26.3671875,9.27734375,43.45703125,0.0,0
1586278049.696179,2,3,18.5546875,40.52734375,25.390625,28.3203125,0.0,0
1586278049.7000852,2,3,6.8359375,28.3203125,24.4140625,-7.8125,0.0,0
1586278049.7039914,2,3,8.30078125,18.5546875,13.18359375,-21.484375,0.0,0
1586278049.7078977,2,3,19.04296875,12.6953125,-8.30078125,2.9296875,0.0,0
1586278049.711804,2,3,24.4140625,5.859375,-8.30078125,46.38671875,0.0,0
1586278049.7157102,2,3,6.8359375,6.34765625,5.859375,41.015625,0.0,0
1586278049.7196164,2,3,-14.6484375,14.6484375,-11.23046875,-12.6953125,0.0,0
1586278049.7235227,2,3,-22.4609375,25.87890625,-20.5078125,-43.45703125,0.0,0
1586278049.727429,2,3,-6.8359375,18.5546875,-3.90625,3.41796875,0.0,0
1586278049.7313352,2,3,22.4609375,20.99609375,-0.9765625,43.45703125,0.0,0
1586278049.7352414,2,3,13.18359375,26.85546875,-16.11328125,29.78515625,0.0,0
1586278049.7391477,2,3,-13.18359375,29.296875,-14.16015625,-20.5078125,0.0,0
1586278049.743054,2,3,-12.6953125,17.08984375,-7.8125,-44.921875,0.0,0
1586278049.7469602,2,3,1.46484375,0.9765625,-8.7890625,0.48828125,0.0,0
1586278049.7508664,2,3,9.27734375,14.16015625,-9.27734375,41.50390625,0.0,0
1586278049.7547727,2,3,4.8828125,20.01953125,-5.37109375,32.71484375,0.0,0
1586278049.758679,2,3,-3.90625,9.27734375,-19.53125,-15.625,0.0,0
1586278049.7625852,2,3,-12.6953125,14.6484375,-22.94921875,-41.015625,0.0,0
1586278049.7664914,2,3,-17.578125,23.92578125,-15.625,-20.5078125,0.0,0
1586278049.7703977,2,3,2.44140625,23.4375,-16.6015625,24.90234375,0.0,0
1586278049.774304,2,3,11.23046875,19.04296875,-14.6484375,31.73828125,0.0,0
1586278049.7782102,2,3,-8.7890625,10.7421875,-14.6484375,-15.13671875,0.0,0
1586278049.7821164,2,3,-20.01953125,18.5546875,-29.78515625,-51.26953125,0.0,0
1586278049.7860227,2,3,-3.41796875,20.01953125,-36.1328125,-31.73828125,0.0,0
1586278049.789929,2,3,18.06640625,16.11328125,-15.13671875,16.6015625,0.0,0
1586278049.7938352,2,3,10.25390625,7.32421875,6.8359375,36.62109375,0.0,0
1586278049.7977414,2,3,-12.6953125,5.859375,10.25390625,-0.48828125,0.0,0
1586278049.8016477,2,3,-25.390625,24.4140625,-4.39453125,-49.31640625,0.0,0
1586278049.805554,2,3,1.46484375,30.2734375,-3.90625,-16.6015625,0.0,0
1586278049.8094602,2,3,19.53125,23.92578125,-4.8828125,35.15625,0.0,0
1586278049.8133664,2,3,18.06640625,21.484375,-12.20703125,32.2265625,0.0,0
1586278049.8172727,2,3,10.7421875,25.390625,-15.625,8.7890625,0.0,0
1586278049.821179,2,3,-7.8125,12.6953125,-21.484375,-27.83203125,0.0,0
1586278049.8250852,2,3,7.8125,20.99609375,-16.11328125,-22.94921875,0.0,0
1586278049.8289914,2,3,24.4140625,32.71484375,-11.71875,19.53125,0.0,0
1586278049.8328977,2,3,21.484375,25.390625,-16.6015625,41.50390625,0.0,0
1586278049.836804,2,3,-0.9765625,23.92578125,-18.5546875,16.6015625,0.0,0
1586278049.8407102,2,3,-25.87890625,12.20703125,-9.765625,-21.484375,0.0,0
1586278049.8446164,2,3,-24.4140625,9.765625,-27.83203125,-32.71484375,0.0,0
1586278049.8485227,2,3,0.9765625,31.73828125,-29.78515625,6.8359375,0.0,0
1586278049.852429,2,3,11.23046875,26.3671875,3.90625,59.5703125,0.0,0
1586278049.8563352,2,3,-18.06640625,12.6953125,0.9765625,23.92578125,0.0,0
1586278049.8602414,2,3,-34.66796875,27.83203125,-9.27734375,-34.1796875,0.0,0
1586278049.8641477,2,3,-16.11328125,35.15625,-5.37109375,-23.92578125,0.0,0
1586278049.868054,2,3,0.48828125,21.97265625,-8.7890625,11.23046875,0.0,0
1586278049.8719602,2,3,8.7890625,13.671875,-23.4375,27.34375,0.0,0
1586278049.8758664,2,3,-3.41796875,10.25390625,-18.06640625,12.6953125,0.0,0
1586278049.8797727,2,3,-20.99609375,10.7421875,-8.7890625,-22.94921875,0.0,0
1586278049.883679,2,3,-15.13671875,35.64453125,-13.18359375,-36.1328125,0.0,0
1586278049.8875852,2,3,9.27734375,32.2265625,-14.16015625,12.20703125,0.0,0
1586278049.8914914,2,3,29.296875,8.30078125,-13.18359375,44.43359375,0.0,0
1586278049.8953977,2,3,26.3671875,18.06640625,-7.8125,42.48046875,0.0,0
1586278049.899304,2,3,4.39453125,25.390625,-11.71875,11.71875,0.0,0
1586278049.9032102,2,3,-20.01953125,20.99609375,-29.78515625,-37.59765625,0.0,0
1586278049.9071164,2,3,1.46484375,14.6484375,-16.6015625,-2.44140625,0.0,0
1586278049.9110227,2,3,12.6953125,21.97265625,-5.859375,53.22265625,0.0,0
1586278049.914929,2,3,-8.30078125,20.5078125,-16.11328125,33.69140625,0.0,0
1586278049.9188352,2,3,-15.13671875,15.13671875,-14.16015625,-21.97265625,0.0,0
1586278049.9227414,2,3,-11.71875,26.3671875,-10.25390625,-29.78515625,0.0,0
1586278049.9266477,2,3,12.20703125,29.78515625,-19.53125,-2.44140625,0.0,0
1586278049.930554,2,3,33.69140625,22.94921875,-20.5078125,39.55078125,0.0,0
1586278049.9344602,2,3,30.76171875,17.08984375,-22.94921875,47.36328125,0.0,0
1586278049.9383664,2,3,2.9296875,6.34765625,-15.13671875,-2.44140625,0.0,0
1586278049.9422727,2,3,-24.90234375,10.25390625,4.39453125,-32.71484375,0.0,0
1586278049.946179,2,3,-26.3671875,17.08984375,-10.25390625,-29.296875,0.0,0
1586278049.9500852,2,3,-8.30078125,16.11328125,-18.06640625,17.08984375,0.0,0
1586278049.9539914,2,3,-2.44140625,15.13671875,0.9765625,38.0859375,0.0,0
1586278049.9578977,2,3,-25.390625,18.06640625,-6.34765625,-0.9765625,0.0,0
1586278049.961804,2,3,-43.9453125,33.69140625,-21.97265625,-34.1796875,0.0,0
1586278049.9657102,2,3,-24.90234375,31.25,-16.6015625,-21.484375,0.0,0
1586278049.9696164,2,3,1.46484375,14.6484375,-15.625,29.296875,0.0,0
1586278049.9735227,2,3,1.46484375,6.34765625,-20.01953125,40.52734375,0.0,0
1586278049.977429,2,3,-24.90234375,12.20703125,-14.6484375,-14.16015625,0.0,0
1586278049.9813352,2,3,-36.62109375,4.39453125,-20.5078125,-56.15234375,0.0,0
1586278049.9852414,2,3,-14.6484375,1.46484375,-29.296875,-29.296875,0.0,0
1586278049.9891477,2,3,7.32421875,13.671875,-13.671875,15.625,0.0,0
1586278049.993054,2,3,3.90625,27.83203125,8.30078125,24.90234375,0.0,0
1586278049.9969602,2,3,-20.99609375,32.71484375,9.27734375,3.90625,0.0,0
1586278050.0008664,2,3,-35.64453125,26.85546875,7.32421875,-47.36328125,0.0,0
1586278050.0047727,2,3,-22.94921875,21.484375,-0.48828125,-58.59375,0.0,0
1586278050.008679,2,3,-5.37109375,11.71875,-10.7421875,-6.34765625,0.0,0
1586278050.0125852,2,3,9.27734375,2.44140625,-11.23046875,30.2734375,0.0,0
1586278050.0164914,2,3,-8.30078125,-3.90625,-20.99609375,5.37109375,0.0,0
1586278050.0203977,2,3,-43.9453125,10.25390625,-12.6953125,-42.48046875,0.0,0
1586278050.024304,2,3,-36.62109375,20.5078125,-8.30078125,-38.0859375,0.0,0
1586278050.0282102,2,3,-4.8828125,20.5078125,-1.46484375,19.53125,0.0,0
1586278050.0321164,2,3,11.23046875,11.23046875,14.16015625,47.36328125,0.0,0
1586278050.0360227,2,3,-7.8125,5.859375,5.37109375,12.20703125,0.0,0
1586278050.039929,2,3,-33.69140625,18.5546875,-0.48828125,-35.64453125,0.0,0
1586278050.0438352,2,3,-35.64453125,14.16015625,-1.46484375,-42.96875,0.0,0
1586278050.0477414,2,3,-15.625,17.578125,1.953125,-6.34765625,0.0,0
1586278050.0516477,2,3,-3.90625,23.92578125,-2.9296875,21.97265625,0.0,0
1586278050.055554,2,3,-14.16015625,22.94921875,0.48828125,7.8125,0.0,0
1586278050.0594602,2,3,-38.0859375,27.34375,2.9296875,-28.80859375,0.0,0
1586278050.0633664,2,3,-56.640625,23.92578125,-10.25390625,-40.52734375,0.0,0
1586278050.0672727,2,3,-36.62109375,8.30078125,-10.7421875,-9.27734375,0.0,0
1586278050.071179,2,3,-12.6953125,0.48828125,-4.39453125,29.78515625,0.0,0
1586278050.0750852,2,3,-9.765625,17.08984375,-6.8359375,39.55078125,0.0,0
1586278050.0789914,2,3,-26.3671875,27.34375,-3.41796875,-4.8828125,0.0,0
1586278050.0828977,2,3,-35.64453125,22.94921875,-1.46484375,-41.9921875,0.0,0
1586278050.086804,2,3,-20.01953125,14.6484375,-5.859375,-18.5546875,0.0,0
1586278050.0907102,2,3,-6.8359375,10.25390625,0.48828125,35.64453125,0.0,0
1586278050.0946164,2,3,-19.53125,10.25390625,-4.39453125,41.9921875,0.0,0
1586278050.0985227,2,3,-41.50390625,15.13671875,-10.7421875,-10.25390625,0.0,0
1586278050.102429,2,3,-33.69140625,10.25390625,-7.8125,-38.0859375,0.0,0
1586278050.1063352,2,3,-5.37109375,4.39453125,-10.25390625,-10.25390625,0.0,0
1586278050.1102414,2,3,20.5078125,19.04296875,-11.23046875,31.25,0.0,0
1586278050.1141477,2,3,19.04296875,16.11328125,-12.20703125,35.64453125,0.0,0
1586278050.118054,2,3,-4.39453125,10.25390625,-14.16015625,13.18359375,0.0,0
1586278050.1219602,2,3,-22.94921875,9.27734375,-14.16015625,-14.16015625,0.0,0
1586278050.1258664,2,3,-21.97265625,-2.44140625,-17.08984375,-21.97265625,0.0,0
1586278050.1297727,2,3,-6.34765625,5.859375,-30.76171875,7.8125,0.0,0
1586278050.133679,2,3,0.9765625,6.34765625,-32.2265625,30.2734375,0.0,0
1586278050.1375852,2,3,-15.625,-18.5546875,-16.6015625,7.32421875,0.0,0
1586278050.1414914,2,3,-37.109375,-7.32421875,-2.44140625,-39.0625,0.0,0
1586278050.1453977,2,3,-18.06640625,19.04296875,-2.9296875,-26.85546875,0.0,0
1586278050.149304,2,3,1.953125,16.6015625,-13.18359375,22.4609375,0.0,0
1586278050.1532102,2,3,-4.8828125,13.18359375,-19.04296875,40.0390625,0.0,0
1586278050.1571164,2,3,-20.01953125,15.13671875,-4.8828125,12.20703125,0.0,0
1586278050.1610227,2,3,-34.66796875,21.97265625,13.18359375,-28.80859375,0.0,0
1586278050.164929,2,3,-30.2734375,16.6015625,-0.48828125,-25.390625,0.0,0
1586278050.1688352,2,3,-9.27734375,7.8125,-10.25390625,15.13671875,0.0,0
1586278050.1727414,2,3,-7.8125,7.32421875,-9.27734375,35.15625,0.0,0
1586278050.1766477,2,3,-23.92578125,0.9765625,-17.578125,9.765625,0.0,0
1586278050.180554,2,3,-26.3671875,0.9765625,-12.20703125,-12.20703125,0.0,0
1586278050.1844602,2,3,-15.13671875,13.671875,-12.20703125,-19.04296875,0.0,0
1586278050.1883664,2,3,3.41796875,24.90234375,-20.01953125,1.953125,0.0,0
1586278050.1922727,2,3,12.6953125,15.13671875,-18.06640625,52.24609375,0.0,0
1586278050.196179,2,3,-12.20703125,8.30078125,-12.6953125,34.1796875,0.0,0
1586278050.2000852,2,3,-39.55078125,19.53125,-12.6953125,-21.97265625,0.0,0
1586278050.2039914,2,3,-36.62109375,26.85546875,-16.11328125,-43.9453125,0.0,0
1586278050.2078977,2,3,-11.23046875,14.16015625,-12.6953125,-11.23046875,0.0,0
1586278050.211804,2,3,4.39453125,10.25390625,-16.6015625,26.3671875,0.0,0
1586278050.2157102,2,3,-13.18359375,11.71875,-19.53125,11.23046875,0.0,0
1586278050.2196164,2,3,-29.296875,2.44140625,-6.34765625,-35.64453125,0.0,0
1586278050.2235227,2,3,-25.87890625,7.32421875,-7.8125,-40.52734375,0.0,0
1586278050.227429,2,3,-10.25390625,17.08984375,-11.23046875,11.23046875,0.0,0
1586278050.2313352,2,3,-1.953125,22.4609375,-7.32421875,41.50390625,0.0,0
1586278050.2352414,2,3,-14.16015625,5.859375,-5.37109375,20.99609375,0.0,0
1586278050.2391477,2,3,-18.5546875,1.46484375,-1.953125,-22.94921875,0.0,0
1586278050.243054,2,3,-13.18359375,22.94921875,-2.9296875,-37.109375,0.0,0
1586278050.2469602,2,3,-9.765625,41.015625,0.9765625,-11.71875,0.0,0
1586278050.2508664,2,3,9.27734375,35.15625,1.953125,24.4140625,0.0,0
1586278050.2547727,2,3,2.9296875,17.578125,-0.9765625,23.4375,0.0,0
1586278050.258679,2,3,-21.97265625,15.625,-6.34765625,-20.01953125,0.0,0
1586278050.2625852,2,3,-22.94921875,13.671875,-13.671875,-44.921875,0.0,0
1586278050.2664914,2,3,-3.90625,18.06640625,-14.6484375,-23.92578125,0.0,0
1586278050.2703977,2,3,18.06640625,20.01953125,-13.18359375,31.25,0.0,0
1586278050.274304,2,3,15.625,3.90625,-18.5546875,33.69140625,0.0,0
1586278050.2782102,2,3,-24.4140625,6.34765625,-19.04296875,-26.85546875,0.0,0
1586278050.2821164,2,3,-34.66796875,23.92578125,-10.7421875,-50.78125,0.0,0
1586278050.2860227,2,3,-9.27734375,23.4375,-10.7421875,-22.94921875,0.0,0
1586278050.289929,2,3,8.7890625,23.92578125,-16.6015625,19.53125,0.0,0
1586278050.2938352,2,3,10.25390625,22.4609375,-19.04296875,32.2265625,0.0,0
1586278050.2977414,2,3,-7.32421875,12.6953125,-16.11328125,0.48828125,0.0,0
1586278050.3016477,2,3,-20.01953125,9.27734375,-12.6953125,-41.50390625,0.0,0
1586278050.305554,2,3,-6.34765625,17.578125,-4.8828125,-35.15625,0.0,0
1586278050.3094602,2,3,18.06640625,14.16015625,-13.18359375,9.27734375,0.0,0
1586278050.3133664,2,3,24.90234375,10.7421875,-26.85546875,36.1328125,0.0,0
1586278050.3172727,2,3,10.25390625,14.16015625,-18.06640625,20.5078125,0.0,0
1586278050.321179,2,3,-18.06640625,-1.953125,-5.859375,-44.43359375,0.0,0
1586278050.3250852,2,3,-19.04296875,-1.953125,-7.32421875,-47.36328125,0.0,0
1586278050.3289914,2,3,9.765625,21.97265625,-10.7421875,16.6015625,0.0,0
1586278050.3328977,2,3,13.671875,20.01953125,1.46484375,38.57421875,0.0,0
1586278050.336804,2,3,-11.71875,10.25390625,1.953125,10.7421875,0.0,0
1586278050.3407102,2,3,-22.4609375,-0.9765625,-3.41796875,-33.69140625,0.0,0
1586278050.3446164,2,3,-16.6015625,-0.48828125,-9.27734375,-38.57421875,0.0,0
1586278050.3485227,2,3,0.9765625,19.53125,-13.671875,-6.8359375,0.0,0
1586278050.352429,2,3,9.27734375,20.01953125,-9.765625,25.390625,0.0,0
1586278050.3563352,2,3,-7.32421875,3.90625,-2.9296875,9.765625,0.0,0
1586278050.3602414,2,3,-20.5078125,4.39453125,-2.9296875,-20.5078125,0.0,0
1586278050.3641477,2,3,-20.01953125,6.34765625,-14.6484375,-28.80859375,0.0,0
1586278050.368054,2,3,-6.8359375,6.34765625,-26.85546875,-19.53125,0.0,0
1586278050.3719602,2,3,11.71875,8.30078125,-16.6015625,21.484375,0.0,0
1586278050.3758664,2,3,-2.44140625,12.20703125,-14.6484375,19.53125,0.0,0
1586278050.3797727,2,3,-33.203125,11.71875,-11.23046875,-19.53125,0.0,0
1586278050.383679,2,3,-35.64453125,-2.44140625,-7.8125,-35.15625,0.0,0
1586278050.3875852,2,3,-9.27734375,-10.25390625,-23.92578125,-7.32421875,0.0,0
1586278050.3914914,2,3,10.7421875,3.90625,-20.01953125,36.1328125,0.0,0
1586278050.3953977,2,3,2.44140625,3.41796875,-8.30078125,21.97265625,0.0,0
1586278050.399304,2,3,-16.11328125,-6.34765625,-12.20703125,-36.1328125,0.0,0
1586278050.4032102,2,3,-7.8125,-10.7421875,-19.53125,-43.9453125,0.0,0
1586278050.4071164,2,3,10.25390625,-10.25390625,-15.625,3.41796875,0.0,0
1586278050.4110227,2,3,9.27734375,17.08984375,-8.30078125,34.66796875,0.0,0
1586278050.414929,2,3,-3.90625,35.15625,-4.39453125,21.97265625,0.0,0
1586278050.4188352,2,3,-13.18359375,15.13671875,-5.859375,-11.71875,0.0,0
1586278050.4227414,2,3,-15.13671875,6.8359375,-11.23046875,-46.875,0.0,0
1586278050.4266477,2,3,-7.32421875,9.765625,-16.6015625,-31.25,0.0,0
1586278050.430554,2,3,16.11328125,7.8125,-19.04296875,22.4609375,0.0,0
1586278050.4344602,2,3,12.20703125,9.27734375,-17.08984375,35.15625,0.0,0
1586278050.4383664,2,3,-22.94921875,7.8125,-23.92578125,-3.90625,0.0,0
1586278050.4422727,2,3,-41.50390625,7.32421875,-26.3671875,-44.43359375,0.0,0
1586278050.446179,2,3,-22.4609375,4.8828125,-13.671875,-18.06640625,0.0,0
1586278050.4500852,2,3,7.8125,0.0,-5.859375,39.55078125,0.0,0
1586278050.4539914,2,3,2.44140625,0.9765625,-2.9296875,39.0625,0.0,0
1586278050.4578977,2,3,-21.484375,10.25390625,-4.39453125,0.9765625,0.0,0
1586278050.461804,2,3,-19.53125,10.7421875,-0.9765625,-30.76171875,0.0,0
1586278050.4657102,2,3,11.71875,12.20703125,0.0,-6.34765625,0.0,0
1586278050.4696164,2,3,28.3203125,17.578125,-7.8125,39.0625,0.0,0
1586278050.4735227,2,3,6.8359375,16.6015625,-15.625,38.0859375,0.0,0
1586278050.477429,2,3,-7.32421875,15.625,-27.34375,9.27734375,0.0,0
1586278050.4813352,2,3,-16.11328125,7.8125,-28.80859375,-37.109375,0.0,0
1586278050.4852414,2,3,-14.6484375,6.8359375,-23.92578125,-34.66796875,0.0,0
1586278050.4891477,2,3,9.765625,11.71875,-17.578125,10.25390625,0.0,0
1586278050.493054,2,3,18.06640625,6.34765625,-23.4375,41.50390625,0.0,0
1586278050.4969602,2,3,7.8125,8.30078125,-20.5078125,31.25,0.0,0
1586278050.5008664,2,3,-4.39453125,19.53125,-5.859375,-10.7421875,0.0,0
1586278050.5047727,2,3,-2.44140625,21.97265625,-12.20703125,-24.90234375,0.0,0
1586278050.508679,2,3,18.5546875,19.04296875,-3.90625,14.6484375,0.0,0
1586278050.5125852,2,3,27.83203125,9.27734375,5.859375,50.78125,0.0,0
1586278050.5164914,2,3,8.7890625,12.6953125,-0.48828125,18.5546875,0.0,0
1586278050.5203977,2,3,-6.8359375,17.08984375,0.48828125,-32.2265625,0.0,0
1586278050.524304,2,3,-1.46484375,13.671875,5.859375,-37.59765625,0.0,0
1586278050.5282102,2,3,14.6484375,9.27734375,-3.41796875,7.32421875,0.0,0
1586278050.5321164,2,3,23.4375,-1.46484375,-16.6015625,48.828125,0.0,0
1586278050.5360227,2,3,10.7421875,11.71875,-19.53125,34.66796875,0.0,0
1586278050.539929,2,3,-8.30078125,28.3203125,-22.94921875,-16.11328125,0.0,0
1586278050.5438352,2,3,-12.20703125,20.01953125,-35.64453125,-38.0859375,0.0,0
1586278050.5477414,2,3,-0.48828125,18.06640625,-33.203125,-1.46484375,0.0,0
1586278050.5516477,2,3,10.25390625,17.08984375,-11.23046875,28.3203125,0.0,0
1586278050.555554,2,3,4.8828125,1.46484375,-4.39453125,31.25,0.0,0
1586278050.5594602,2,3,-14.6484375,4.39453125,-4.39453125,-11.71875,0.0,0
1586278050.5633664,2,3,-23.92578125,15.13671875,-3.41796875,-44.921875,0.0,0
1586278050.5672727,2,3,-12.20703125,7.32421875,-1.46484375,-2.44140625,0.0,0
1586278050.571179,2,3,-4.8828125,-7.8125,-3.41796875,41.9921875,0.0,0
1586278050.5750852,2,3,-10.7421875,-13.18359375,-6.34765625,27.34375,0.0,0
1586278050.5789914,2,3,-30.2734375,0.0,-16.11328125,-22.94921875,0.0,0
1586278050.5828977,2,3,-33.69140625,11.71875,-25.390625,-39.0625,0.0,0
1586278050.586804,2,3,-7.32421875,20.5078125,-36.1328125,-12.6953125,0.0,0
1586278050.5907102,2,3,14.16015625,14.6484375,-32.2265625,24.90234375,0.0,0
1586278050.5946164,2,3,6.8359375,14.6484375,-11.23046875,34.1796875,0.0,0
1586278050.5985227,2,3,-16.6015625,11.71875,-13.671875,3.90625,0.0,0
1586278050.602429,2,3,-20.5078125,10.7421875,-20.99609375,-20.99609375,0.0,0
1586278050.6063352,2,3,-11.23046875,0.0,-17.578125,-23.4375,0.0,0
1586278050.6102414,2,3,3.90625,-5.37109375,-19.53125,9.765625,0.0,0
1586278050.6141477,2,3,12.20703125,2.9296875,-22.4609375,31.73828125,0.0,0
1586278050.618054,2,3,-5.859375,-3.90625,-20.01953125,-0.9765625,0.0,0
1586278050.6219602,2,3,-29.78515625,1.46484375,-18.5546875,-38.57421875,0.0,0
1586278050.6258664,2,3,-18.5546875,3.41796875,-18.06640625,-14.16015625,0.0,0
1586278050.6297727,2,3,3.90625,4.8828125,-25.87890625,33.69140625,0.0,0
1586278050.633679,2,3,8.30078125,9.765625,-21.484375,43.45703125,0.0,0
1586278050.6375852,2,3,-9.765625,12.6953125,-6.8359375,12.6953125,0.0,0
1586278050.6414914,2,3,-29.296875,9.765625,-9.765625,-31.25,0.0,0
1586278050.6453977,2,3,-13.671875,0.48828125,-13.671875,-13.18359375,0.0,0
1586278050.649304,2,3,6.34765625,-2.9296875,-17.08984375,26.3671875,0.0,0
1586278050.6532102,2,3,7.8125,0.48828125,-31.25,17.578125,0.0,0
1586278050.6571164,2,3,-8.7890625,0.48828125,-26.3671875,-1.953125,0.0,0
1586278050.6610227,2,3,-27.83203125,-2.9296875,-11.23046875,-31.73828125,0.0,0
1586278050.664929,2,3,-18.06640625,-1.953125,-17.578125,-32.2265625,0.0,0
1586278050.6688352,2,3,0.0,-0.9765625,-31.25,1.46484375,0.0,0
1586278050.6727414,2,3,16.11328125,0.48828125,-29.78515625,29.296875,0.0,0
1586278050.6766477,2,3,8.7890625,9.27734375,-21.97265625,10.25390625,0.0,0
1586278050.680554,2,3,-17.08984375,14.6484375,-12.20703125,-36.62109375,0.0,0
1586278050.6844602,2,3,-14.6484375,12.6953125,-18.06640625,-37.59765625,0.0,0
1586278050.6883664,2,3,5.37109375,6.34765625,-23.92578125,9.27734375,0.0,0
1586278050.6922727,2,3,20.01953125,5.859375,-20.5078125,61.03515625,0.0,0
1586278050.696179,2,3,-1.953125,6.34765625,-24.90234375,30.2734375,0.0,0
1586278050.7000852,2,3,-24.90234375,3.41796875,-22.94921875,-34.1796875,0.0,0
1586278050.7039914,2,3,-17.578125,3.41796875,-14.16015625,-35.15625,0.0,0
1586278050.7078977,2,3,-2.44140625,-0.9765625,-6.8359375,1.953125,0.0,0
1586278050.711804,2,3,1.953125,5.859375,-11.23046875,27.34375,0.0,0
1586278050.7157102,2,3,-4.8828125,9.27734375,-17.08984375,17.578125,0.0,0
1586278050.7196164,2,3,-21.97265625,1.953125,-24.90234375,-22.94921875,0.0,0
1586278050.7235227,2,3,-34.66796875,4.39453125,-28.3203125,-45.8984375,0.0,0
1586278050.727429,2,3,-21.97265625,0.48828125,-28.80859375,-15.625,0.0,0
1586278050.7313352,2,3,-7.8125,-20.01953125,-19.04296875,29.78515625,0.0,0
1586278050.7352414,2,3,-11.23046875,-12.6953125,-15.625,44.921875,0.0,0
1586278050.7391477,2,3,-29.296875,8.30078125,-21.97265625,-12.20703125,0.0,0
1586278050.743054,2,3,-38.0859375,10.7421875,-16.6015625,-58.10546875,0.0,0
1586278050.7469602,2,3,-18.06640625,2.44140625,-12.20703125,-21.97265625,0.0,0
1586278050.7508664,2,3,-6.34765625,7.8125,-9.765625,11.23046875,0.0,0
1586278050.7547727,2,3,-7.8125,14.6484375,-0.48828125,15.625,0.0,0
1586278050.758679,2,3,-14.16015625,16.11328125,-0.9765625,-24.4140625,0.0,0
1586278050.7625852,2,3,-16.6015625,10.7421875,-16.6015625,-57.12890625,0.0,0
1586278050.7664914,2,3,-6.34765625,10.7421875,-25.390625,-32.2265625,0.0,0
1586278050.7703977,2,3,12.20703125,21.484375,-22.94921875,25.87890625,0.0,0
1586278050.774304,2,3,12.6953125,25.87890625,-20.99609375,47.36328125,0.0,0
1586278050.7782102,2,3,-5.859375,20.99609375,-10.7421875,13.18359375,0.0,0
1586278050.7821164,2,3,-11.71875,12.20703125,-22.94921875,-16.11328125,0.0,0
1586278050.7860227,2,3,-9.765625,15.625,-46.38671875,-19.53125,0.0,0
1586278050.789929,2,3,1.953125,13.671875,-11.23046875,8.30078125,0.0,0
1586278050.7938352,2,3,7.32421875,7.32421875,-4.39453125,39.55078125,0.0,0
1586278050.7977414,2,3,-5.859375,17.08984375,-18.06640625,20.5078125,0.0,0
1586278050.8016477,2,3,-12.6953125,16.11328125,-9.765625,-25.390625,0.0,0
1586278050.805554,2,3,-10.25390625,13.18359375,-8.7890625,-23.92578125,0.0,0
1586278050.8094602,2,3,-0.48828125,10.25390625,-14.16015625,18.5546875,0.0,0
1586278050.8133664,2,3,10.7421875,10.7421875,-16.6015625,43.45703125,0.0,0
1586278050.8172727,2,3,-6.8359375,16.11328125,-19.53125,21.97265625,0.0,0
1586278050.821179,2,3,-25.87890625,8.7890625,-18.06640625,-17.578125,0.0,0
1586278050.8250852,2,3,-6.34765625,2.9296875,-9.765625,-14.6484375,0.0,0
1586278050.8289914,2,3,6.8359375,6.8359375,-12.20703125,22.4609375,0.0,0
1586278050.8328977,2,3,-1.953125,10.25390625,-20.01953125,42.96875,0.0,0
1586278050.836804,2,3,-1.46484375,-3.41796875,-19.04296875,24.90234375,0.0,0
1586278050.8407102,2,3,-8.30078125,-1.46484375,-14.6484375,-14.6484375,0.0,0
1586278050.8446164,2,3,-8.7890625,22.4609375,-23.4375,-28.80859375,0.0,0
1586278050.8485227,2,3,14.6484375,27.83203125,-22.4609375,-2.9296875,0.0,0
1586278050.852429,2,3,24.90234375,20.99609375,-8.30078125,41.50390625,0.0,0
1586278050.8563352,2,3,6.34765625,20.5078125,-6.8359375,33.203125,0.0,0
1586278050.8602414,2,3,-20.01953125,28.80859375,-4.39453125,-13.671875,0.0,0
1586278050.8641477,2,3,-14.16015625,22.4609375,-8.7890625,-28.80859375,0.0,0
1586278050.868054,2,3,5.859375,-6.34765625,-7.8125,6.8359375,0.0,0
1586278050.8719602,2,3,7.32421875,-6.34765625,1.953125,48.828125,0.0,0
1586278050.8758664,2,3,-7.32421875,17.578125,1.46484375,34.66796875,0.0,0
1586278050.8797727,2,3,-23.4375,19.53125,0.48828125,-10.7421875,0.0,0
1586278050.883679,2,3,-20.5078125,15.625,0.0,-23.4375,0.0,0
1586278050.8875852,2,3,0.0,12.20703125,-2.44140625,16.11328125,0.0,0
1586278050.8914914,2,3,18.06640625,11.23046875,-2.9296875,48.828125,0.0,0
1586278050.8953977,2,3,17.08984375,16.6015625,-1.953125,41.015625,0.0,0
1586278050.899304,2,3,-11.23046875,16.6015625,-26.85546875,-2.9296875,0.0,0
1586278050.9032102,2,3,-21.484375,13.18359375,-26.3671875,-30.2734375,0.0,0
1586278050.9071164,2,3,-3.41796875,0.9765625,-2.9296875,-6.8359375,0.0,0
1586278050.9110227,2,3,12.6953125,3.41796875,-0.48828125,29.296875,0.0,0
1586278050.914929,2,3,9.765625,14.16015625,-1.953125,30.2734375,0.0,0
1586278050.9188352,2,3,-11.23046875,6.34765625,-7.32421875,-8.30078125,0.0,0
1586278050.9227414,2,3,-24.90234375,4.39453125,-18.06640625,-37.59765625,0.0,0
1586278050.9266477,2,3,-14.6484375,3.90625,-12.20703125,-11.71875,0.0,0
1586278050.930554,2,3,8.7890625,-7.32421875,-10.25390625,38.57421875,0.0,0
1586278050.9344602,2,3,2.44140625,3.90625,-12.20703125,47.8515625,0.0,0
1586278050.9383664,2,3,-24.4140625,17.578125,-15.13671875,0.0,0.0,0
1586278050.9422727,2,3,-24.4140625,17.08984375,-18.06640625,-35.64453125,0.0,0
1586278050.946179,2,3,-11.71875,21.97265625,-9.765625,-19.53125,0.0,0
1586278050.9500852,2,3,-0.48828125,19.04296875,-5.37109375,20.01953125,0.0,0
1586278050.9539914,2,3,3.90625,11.23046875,-12.6953125,40.0390625,0.0,0
1586278050.9578977,2,3,-6.34765625,8.7890625,-17.08984375,15.625,0.0,0
1586278050.961804,2,3,-16.6015625,6.8359375,-9.765625,-22.94921875,0.0,0
1586278050.9657102,2,3,-7.32421875,10.7421875,-6.8359375,-13.671875,0.0,0
1586278050.9696164,2,3,11.23046875,11.71875,-15.625,23.92578125,0.0,0
1586278050.9735227,2,3,26.3671875,8.7890625,-21.97265625,42.48046875,0.0,0
1586278050.977429,2,3,7.8125,-1.46484375,-20.5078125,19.53125,0.0,0
1586278050.9813352,2,3,-32.2265625,-9.765625,-26.3671875,-30.2734375,0.0,0
1586278050.9852414,2,3,-27.83203125,13.18359375,-17.578125,-39.0625,0.0,0
1586278050.9891477,2,3,12.6953125,27.83203125,-7.32421875,11.23046875,0.0,0
1586278050.993054,2,3,20.99609375,11.71875,-10.25390625,49.31640625,0.0,0
1586278050.9969602,2,3,-14.6484375,3.41796875,-18.06640625,13.671875,0.0,0
1586278051.0008664,2,3,-35.64453125,7.8125,-17.578125,-36.62109375,0.0,0
1586278051.0047727,2,3,-17.08984375,12.20703125,-13.18359375,-41.50390625,0.0,0
1586278051.008679,2,3,0.0,5.859375,-16.6015625,1.953125,0.0,0
1586278051.0125852,2,3,4.39453125,2.9296875,-9.27734375,37.59765625,0.0,0
1586278051.0164914,2,3,-3.90625,8.7890625,-15.13671875,12.20703125,0.0,0
1586278051.0203977,2,3,-16.11328125,13.18359375,-19.04296875,-21.484375,0.0,0
1586278051.024304,2,3,-20.99609375,14.16015625,-6.34765625,-31.25,0.0,0
1586278051.0282102,2,3,-14.16015625,3.41796875,-19.04296875,-14.6484375,0.0,0
1586278051.0321164,2,3,3.41796875,-3.41796875,-23.92578125,29.296875,0.0,0
1586278051.0360227,2,3,-10.25390625,5.859375,-10.7421875,24.90234375,0.0,0
1586278051.039929,2,3,-25.87890625,16.6015625,-6.34765625,-18.06640625,0.0,0
1586278051.0438352,2,3,-27.83203125,21.484375,-5.859375,-36.1328125,0.0,0
1586278051.0477414,2,3,-6.34765625,16.6015625,-9.765625,4.39453125,0.0,0
1586278051.0516477,2,3,15.13671875,10.25390625,-12.6953125,41.9921875,0.0,0
1586278051.055554,2,3,5.859375,18.5546875,-12.6953125,28.3203125,0.0,0
1586278051.0594602,2,3,-10.25390625,14.16015625,-14.16015625,-7.8125,0.0,0
1586278051.0633664,2,3,-13.18359375,6.34765625,-32.71484375,-27.83203125,0.0,0
1586278051.0672727,2,3,2.9296875,15.625,-21.97265625,4.39453125,0.0,0
1586278051.071179,2,3,1.953125,18.06640625,0.48828125,38.0859375,0.0,0
1586278051.0750852,2,3,-2.44140625,10.25390625,-6.8359375,33.203125,0.0,0
1586278051.0789914,2,3,-12.20703125,3.41796875,-14.16015625,-11.71875,0.0,0
1586278051.0828977,2,3,-22.94921875,11.23046875,-4.39453125,-41.9921875,0.0,0
1586278051.086804,2,3,-8.30078125,15.625,12.6953125,-12.6953125,0.0,0
1586278051.0907102,2,3,7.8125,11.23046875,-10.25390625,26.85546875,0.0,0
1586278051.0946164,2,3,7.32421875,12.6953125,-37.109375,43.9453125,0.0,0
1586278051.0985227,2,3,-8.7890625,0.0,-20.99609375,4.8828125,0.0,0
1586278051.102429,2,3,-26.85546875,-0.48828125,-7.8125,-42.48046875,0.0,0
1586278051.1063352,2,3,-18.5546875,5.859375,-12.20703125,-25.87890625,0.0,0
1586278051.1102414,2,3,10.25390625,-3.90625,-13.18359375,29.296875,0.0,0
1586278051.1141477,2,3,6.34765625,1.46484375,-8.7890625,32.71484375,0.0,0
1586278051.118054,2,3,-31.73828125,2.44140625,-23.92578125,-17.578125,0.0,0
1586278051.1219602,2,3,-43.9453125,-5.37109375,-34.1796875,-50.29296875,0.0,0
1586278051.1258664,2,3,-25.390625,-0.48828125,-32.2265625,-39.55078125,0.0,0
1586278051.1297727,2,3,-5.37109375,8.7890625,-21.484375,13.671875,0.0,0
1586278051.133679,2,3,5.859375,21.484375,0.0,39.0625,0.0,0
1586278051.1375852,2,3,-10.25390625,18.06640625,-1.46484375,17.08984375,0.0,0
1586278051.1414914,2,3,-30.2734375,11.23046875,-12.20703125,-10.7421875,0.0,0
1586278051.1453977,2,3,-16.11328125,5.859375,-23.4375,-18.06640625,0.0,0
1586278051.149304,2,3,8.7890625,-4.39453125,-28.3203125,17.08984375,0.0,0
1586278051.1532102,2,3,22.94921875,14.6484375,-10.7421875,54.19921875,0.0,0
1586278051.1571164,2,3,8.7890625,17.578125,-6.8359375,36.62109375,0.0,0
1586278051.1610227,2,3,-23.92578125,-12.6953125,-11.23046875,-27.83203125,0.0,0
1586278051.164929,2,3,-25.390625,0.0,-22.4609375,-43.9453125,0.0,0
1586278051.1688352,2,3,5.37109375,25.390625,-26.85546875,7.8125,0.0,0
1586278051.1727414,2,3,17.08984375,26.85546875,3.90625,44.921875,0.0,0
1586278051.1766477,2,3,-6.34765625,22.94921875,18.06640625,20.01953125,0.0,0
1586278051.180554,2,3,-21.484375,13.18359375,-2.44140625,-32.71484375,0.0,0
1586278051.1844602,2,3,-19.53125,3.41796875,-26.85546875,-39.0625,0.0,0
1586278051.1883664,2,3,-5.37109375,3.90625,-31.25,-1.953125,0.0,0
1586278051.1922727,2,3,3.90625,-5.37109375,-24.90234375,34.1796875,0.0,0
1586278051.196179,2,3,-1.46484375,-5.859375,-18.5546875,34.1796875,0.0,0
1586278051.2000852,2,3,-4.39453125,13.18359375,-15.625,-0.9765625,0.0,0
1586278051.2039914,2,3,-8.30078125,22.94921875,-21.484375,-19.04296875,0.0,0
1586278051.2078977,2,3,5.859375,20.01953125,-23.4375,0.0,0.0,0
1586278051.211804,2,3,27.83203125,12.6953125,-19.04296875,41.9921875,0.0,0
1586278051.2157102,2,3,20.01953125,15.625,-20.99609375,41.50390625,0.0,0
1586278051.2196164,2,3,-12.6953125,9.27734375,-27.83203125,-14.6484375,0.0,0
1586278051.2235227,2,3,-27.34375,-13.671875,-34.1796875,-46.875,0.0,0
1586278051.227429,2,3,-4.8828125,-6.34765625,-20.99609375,-13.18359375,0.0,0
1586278051.2313352,2,3,7.8125,16.11328125,-0.9765625,34.66796875,0.0,0
1586278051.2352414,2,3,-11.23046875,17.08984375,-6.8359375,31.73828125,0.0,0
1586278051.2391477,2,3,-26.85546875,9.27734375,-8.30078125,-14.6484375,0.0,0
1586278051.243054,2,3,-21.97265625,1.953125,-5.37109375,-48.33984375,0.0,0
1586278051.2469602,2,3,-4.8828125,2.44140625,-11.71875,-29.78515625,0.0,0
1586278051.2508664,2,3,6.8359375,7.8125,-5.37109375,13.18359375,0.0,0
1586278051.2547727,2,3,-0.48828125,7.32421875,-23.4375,12.6953125,0.0,0
1586278051.258679,2,3,-26.85546875,-12.20703125,-34.66796875,-34.66796875,0.0,0
1586278051.2625852,2,3,-39.0625,-19.04296875,-8.30078125,-66.40625,0.0,0
1586278051.2664914,2,3,-28.80859375,3.90625,-21.97265625,-54.6875,0.0,0
1586278051.2703977,2,3,-10.25390625,11.23046875,-38.0859375,-8.30078125,0.0,0
1586278051.274304,2,3,-1.953125,7.32421875,-16.6015625,18.5546875,0.0,0
1586278051.2782102,2,3,-20.5078125,2.9296875,-6.8359375,-12.20703125,0.0,0
1586278051.2821164,2,3,-39.55078125,13.18359375,-18.06640625,-48.828125,0.0,0
1586278051.2860227,2,3,-26.3671875,15.13671875,-24.90234375,-28.3203125,0.0,0
1586278051.289929,2,3,2.44140625,4.39453125,-14.6484375,30.76171875,0.0,0
1586278051.2938352,2,3,7.8125,-1.46484375,-8.30078125,52.24609375,0.0,0
1586278051.2977414,2,3,-19.04296875,1.953125,-18.5546875,2.44140625,0.0,0
1586278051.3016477,2,3,-34.66796875,4.8828125,-24.90234375,-43.45703125,0.0,0
1586278051.305554,2,3,-16.11328125,-0.48828125,-24.90234375,-11.71875,0.0,0
1586278051.3094602,2,3,0.9765625,-3.41796875,-20.99609375,27.83203125,0.0,0
1586278051.3133664,2,3,1.46484375,5.859375,-14.16015625,20.99609375,0.0,0
1586278051.3172727,2,3,-3.41796875,7.32421875,-21.97265625,-1.46484375,0.0,0
1586278051.321179,2,3,-18.5546875,-2.44140625,-35.15625,-33.203125,0.0,0
1586278051.3250852,2,3,-9.765625,9.27734375,-30.2734375,-40.0390625,0.0,0
1586278051.3289914,2,3,16.6015625,20.99609375,-17.578125,0.0,0.0,0
1586278051.3328977,2,3,20.99609375,10.25390625,-6.8359375,42.48046875,0.0,0
1586278051.336804,2,3,1.953125,1.46484375,-5.37109375,20.5078125,0.0,0
1586278051.3407102,2,3,-20.01953125,-6.8359375,-4.8828125,-29.78515625,0.0,0
1586278051.3446164,2,3,-25.87890625,-10.25390625,-12.6953125,-40.0390625,0.0,0
1586278051.3485227,2,3,-7.8125,9.27734375,-15.13671875,-1.46484375,0.0,0
1586278051.352429,2,3,5.859375,9.27734375,-16.11328125,43.9453125,0.0,0
1586278051.3563352,2,3,-12.6953125,17.578125,-26.85546875,18.06640625,0.0,0
1586278051.3602414,2,3,-27.34375,18.5546875,-21.97265625,-35.15625,0.0,0
1586278051.3641477,2,3,-26.3671875,-0.48828125,-24.90234375,-35.64453125,0.0,0
1586278051.368054,2,3,-14.16015625,10.7421875,-14.6484375,-3.90625,0.0,0
1586278051.3719602,2,3,-1.46484375,15.625,-12.6953125,30.76171875,0.0,0
1586278051.3758664,2,3,-6.34765625,11.23046875,-13.671875,25.87890625,0.0,0
1586278051.3797727,2,3,-22.94921875,7.32421875,-7.32421875,-20.5078125,0.0,0
1586278051.383679,2,3,-24.4140625,4.8828125,-12.6953125,-36.1328125,0.0,0
1586278051.3875852,2,3,-6.8359375,12.6953125,-3.90625,-3.41796875,0.0,0
1586278051.3914914,2,3,14.16015625,19.53125,-10.25390625,38.0859375,0.0,0
1586278051.3953977,2,3,17.578125,15.13671875,-7.8125,50.29296875,0.0,0
1586278051.399304,2,3,-7.8125,10.25390625,-14.6484375,1.953125,0.0,0
1586278051.4032102,2,3,-26.3671875,10.7421875,-13.671875,-42.48046875,0.0,0
1586278051.4071164,2,3,-7.8125,4.39453125,-0.9765625,-13.18359375,0.0,0
1586278051.4110227,2,3,14.16015625,9.765625,-18.06640625,31.73828125,0.0,0
1586278051.414929,2,3,-3.41796875,20.99609375,-37.109375,32.2265625,0.0,0
1586278051.4188352,2,3,-33.69140625,14.6484375,-34.1796875,-5.859375,0.0,0
1586278051.4227414,2,3,-27.83203125,8.30078125,-16.11328125,-27.34375,0.0,0
1586278051.4266477,2,3,-6.8359375,6.34765625,-11.71875,-6.8359375,0.0,0
1586278051.430554,2,3,9.765625,3.41796875,-5.859375,37.59765625,0.0,0
1586278051.4344602,2,3,15.625,2.9296875,-7.8125,47.8515625,0.0,0
1586278051.4383664,2,3,0.0,7.8125,-14.6484375,6.8359375,0.0,0
1586278051.4422727,2,3,-7.8125,3.90625,-15.13671875,-26.3671875,0.0,0
1586278051.446179,2,3,-8.7890625,6.34765625,-19.04296875,-30.76171875,0.0,0
1586278051.4500852,2,3,10.25390625,17.578125,-16.11328125,8.7890625,0.0,0
1586278051.4539914,2,3,27.83203125,14.16015625,-2.9296875,44.921875,0.0,0
1586278051.4578977,2,3,9.765625,31.25,-11.71875,4.8828125,0.0,0
1586278051.461804,2,3,-20.01953125,47.8515625,-23.92578125,-42.48046875,0.0,0
1586278051.4657102,2,3,-15.625,30.76171875,-18.06640625,-28.80859375,0.0,0
1586278051.4696164,2,3,10.7421875,13.18359375,-25.390625,17.08984375,0.0,0
1586278051.4735227,2,3,19.53125,10.7421875,-17.08984375,39.55078125,0.0,0
1586278051.477429,2,3,-7.8125,15.13671875,2.44140625,14.6484375,0.0,0
1586278051.4813352,2,3,-35.15625,10.25390625,-9.27734375,-34.1796875,0.0,0
1586278051.4852414,2,3,-25.87890625,4.39453125,-26.3671875,-25.390625,0.0,0
1586278051.4891477,2,3,-0.48828125,10.7421875,-13.18359375,23.4375,0.0,0
1586278051.493054,2,3,-3.41796875,18.06640625,-10.7421875,30.76171875,0.0,0
1586278051.4969602,2,3,-14.6484375,9.765625,-1.46484375,12.20703125,0.0,0
1586278051.5008664,2,3,-20.99609375,10.7421875,0.9765625,-28.3203125,0.0,0
1586278051.5047727,2,3,-15.13671875,13.18359375,-19.04296875,-46.875,0.0,0
1586278051.508679,3,2,2.44140625,5.37109375,-25.390625,-6.8359375,0.0,0
1586278051.5125852,3,2,14.6484375,4.8828125,-21.484375,41.50390625,0.0,0
1586278051.5164914,3,2,4.8828125,9.27734375,-19.04296875,34.1796875,0.0,0
1586278051.5203977,3,2,-20.99609375,6.34765625,-25.87890625,-23.92578125,0.0,0
1586278051.524304,3,2,-24.4140625,8.7890625,-26.85546875,-41.9921875,0.0,0
1586278051.5282102,3,2,4.39453125,5.859375,-14.6484375,10.7421875,0.0,0
1586278051.5321164,3,2,19.04296875,-3.41796875,-7.8125,60.546875,0.0,0
1586278051.5360227,3,2,7.8125,5.37109375,-8.7890625,47.36328125,0.0,0
1586278051.539929,3,2,-16.11328125,11.71875,-13.18359375,-4.8828125,0.0,0
1586278051.5438352,3,2,-15.625,-0.48828125,-14.6484375,-13.671875,0.0,0
1586278051.5477414,3,2,4.8828125,-0.48828125,-15.13671875,11.71875,0.0,0
1586278051.5516477,3,2,10.7421875,7.8125,-25.390625,26.85546875,0.0,0
1586278051.555554,3,2,3.90625,7.8125,-20.01953125,17.578125,0.0,0
1586278051.5594602,3,2,-9.27734375,-0.48828125,-17.08984375,-20.01953125,0.0,0
1586278051.5633664,3,2,-14.6484375,3.41796875,-23.4375,-40.52734375,0.0,0
1586278051.5672727,3,2,-0.48828125,17.08984375,-13.18359375,-16.6015625,0.0,0
1586278051.571179,3,2,14.6484375,10.25390625,-13.18359375,34.1796875,0.0,0
1586278051.5750852,3,2,8.7890625,6.8359375,-15.13671875,38.0859375,0.0,0
1586278051.5789914,3,2,-13.671875,15.13671875,-3.90625,-6.8359375,0.0,0
1586278051.5828977,3,2,-25.87890625,16.11328125,-9.27734375,-45.41015625,0.0,0
1586278051.586804,3,2,-13.18359375,10.7421875,-13.18359375,-25.390625,0.0,0
1586278051.5907102,3,2,27.34375,7.32421875,-9.765625,53.22265625,0.0,0
1586278051.5946164,3,2,18.06640625,-7.8125,-18.5546875,62.98828125,0.0,0
1586278051.5985227,3,2,-21.484375,-4.8828125,-20.01953125,-8.7890625,0.0,0
1586278051.602429,3,2,-11.71875,-3.90625,-11.23046875,-35.64453125,0.0,0
1586278051.6063352,3,2,8.7890625,-9.27734375,-9.765625,-9.27734375,0.0,0
1586278051.6102414,3,2,14.6484375,8.30078125,-11.23046875,39.55078125,0.0,0
1586278051.6141477,3,2,9.27734375,17.578125,-11.23046875,52.734375,0.0,0
1586278051.618054,3,2,1.953125,26.85546875,-17.578125,14.6484375,0.0,0
1586278051.6219602,3,2,-19.04296875,26.85546875,-21.97265625,-19.04296875,0.0,0
1586278051.6258664,3,2,-21.97265625,20.01953125,-6.8359375,-15.13671875,0.0,0
1586278051.6297727,3,2,0.0,17.578125,-1.953125,18.5546875,0.0,0
1586278051.633679,3,2,0.9765625,9.27734375,-13.671875,36.62109375,0.0,0
1586278051.6375852,3,2,-13.18359375,2.9296875,-21.97265625,19.04296875,0.0,0
1586278051.6414914,3,2,-33.69140625,4.39453125,-26.3671875,-27.34375,0.0,0
1586278051.6453977,3,2,-30.76171875,5.859375,-20.5078125,-33.69140625,0.0,0
1586278051.649304,3,2,1.953125,-5.859375,-13.671875,15.13671875,0.0,0
1586278051.6532102,3,2,20.5078125,-14.16015625,-16.6015625,52.24609375,0.0,0
1586278051.6571164,3,2,6.8359375,7.8125,-23.92578125,31.73828125,0.0,0
1586278051.6610227,3,2,-9.765625,13.671875,-21.97265625,-16.11328125,0.0,0
1586278051.664929,3,2,-8.7890625,1.46484375,-17.578125,-26.85546875,0.0,0
1586278051.6688352,3,2,10.7421875,13.671875,-20.01953125,16.11328125,0.0,0
1586278051.6727414,3,2,26.3671875,17.578125,-21.97265625,52.734375,0.0,0
1586278051.6766477,3,2,7.8125,5.859375,-16.6015625,27.83203125,0.0,0
1586278051.680554,3,2,-6.8359375,-6.8359375,-16.11328125,-10.7421875,0.0,0
1586278051.6844602,3,2,-8.7890625,-8.30078125,-35.64453125,-25.87890625,0.0,0
1586278051.6883664,3,2,-0.9765625,0.0,-37.59765625,-5.37109375,0.0,0
1586278051.6922727,3,2,12.6953125,0.48828125,-3.41796875,38.0859375,0.0,0
1586278051.696179,3,2,-9.765625,-1.953125,-4.39453125,30.2734375,0.0,0
1586278051.7000852,3,2,-32.2265625,-0.48828125,-19.04296875,-23.92578125,0.0,0
1586278051.7039914,3,2,-23.4375,12.20703125,-9.27734375,-35.15625,0.0,0
1586278051.7078977,3,2,-0.48828125,16.6015625,-5.859375,12.6953125,0.0,0
1586278051.711804,3,2,15.13671875,12.20703125,-6.8359375,51.26953125,0.0,0
1586278051.7157102,3,2,8.30078125,16.6015625,-8.30078125,45.41015625,0.0,0
1586278051.7196164,3,2,-15.625,6.34765625,-11.71875,4.8828125,0.0,0
1586278051.7235227,3,2,-14.6484375,2.9296875,-16.11328125,-20.99609375,0.0,0
1586278051.727429,3,2,7.32421875,6.34765625,-12.6953125,9.27734375,0.0,0
1586278051.7313352,3,2,6.8359375,-0.9765625,-12.20703125,36.1328125,0.0,0
1586278051.7352414,3,2,5.37109375,2.44140625,-13.18359375,29.296875,0.0,0
1586278051.7391477,3,2,-1.953125,2.44140625,-15.625,0.48828125,0.0,0
1586278051.743054,3,2,-17.578125,-0.9765625,-20.5078125,-28.80859375,0.0,0
1586278051.7469602,3,2,-8.30078125,10.7421875,-15.625,-6.8359375,0.0,0
1586278051.7508664,3,2,19.04296875,-4.39453125,-7.8125,44.921875,0.0,0
1586278051.7547727,3,2,21.484375,-11.71875,-9.765625,65.91796875,0.0,0
1586278051.758679,3,2,-1.953125,15.625,-9.765625,25.87890625,0.0,0
1586278051.7625852,3,2,-17.578125,25.87890625,-12.6953125,-15.625,0.0,0
1586278051.7664914,3,2,-14.16015625,11.71875,-37.59765625,-14.16015625,0.0,0
1586278051.7703977,3,2,9.765625,5.859375,-40.0390625,29.296875,0.0,0
1586278051.774304,3,2,17.08984375,16.6015625,-13.18359375,52.24609375,0.0,0
1586278051.7782102,3,2,-13.18359375,14.6484375,-13.671875,6.8359375,0.0,0
1586278051.7821164,3,2,-27.83203125,11.71875,-20.99609375,-29.296875,0.0,0
1586278051.7860227,3,2,-7.32421875,14.6484375,-6.34765625,-20.01953125,0.0,0
1586278051.789929,3,2,13.671875,13.671875,0.0,25.87890625,0.0,0
1586278051.7938352,3,2,17.578125,15.625,-3.41796875,55.17578125,0.0,0
1586278051.7977414,3,2,6.34765625,10.25390625,-11.23046875,30.2734375,0.0,0
1586278051.8016477,3,2,-15.625,3.90625,-28.3203125,-18.06640625,0.0,0
1586278051.805554,3,2,-20.5078125,8.30078125,-33.203125,-24.90234375,0.0,0
1586278051.8094602,3,2,4.39453125,-6.34765625,-10.25390625,11.23046875,0.0,0
1586278051.8133664,3,2,20.5078125,0.0,6.34765625,40.52734375,0.0,0
1586278051.8172727,3,2,9.765625,20.5078125,9.765625,41.015625,0.0,0
1586278051.821179,3,2,-13.18359375,19.53125,-3.90625,-12.6953125,0.0,0
1586278051.8250852,3,2,-14.6484375,17.08984375,-20.99609375,-31.73828125,0.0,0
1586278051.8289914,3,2,14.6484375,16.6015625,-9.27734375,24.90234375,0.0,0
1586278051.8328977,3,2,29.296875,13.671875,0.9765625,61.03515625,0.0,0
1586278051.836804,3,2,17.578125,16.11328125,-5.859375,40.0390625,0.0,0
1586278051.8407102,3,2,0.9765625,12.20703125,-7.8125,-13.18359375,0.0,0
1586278051.8446164,3,2,-4.8828125,-3.41796875,-6.34765625,-23.4375,0.0,0
1586278051.8485227,3,2,5.859375,-5.859375,-8.30078125,4.8828125,0.0,0
1586278051.852429,3,2,13.671875,0.48828125,-5.37109375,33.203125,0.0,0
1586278051.8563352,3,2,7.32421875,7.32421875,-15.13671875,36.62109375,0.0,0
1586278051.8602414,3,2,-14.16015625,-0.48828125,-19.04296875,14.6484375,0.0,0
1586278051.8641477,3,2,-20.5078125,1.953125,-11.71875,-1.953125,0.0,0
1586278051.868054,3,2,-5.37109375,16.11328125,-12.6953125,7.8125,0.0,0
1586278051.8719602,3,2,17.08984375,10.25390625,-7.32421875,43.9453125,0.0,0
1586278051.8758664,3,2,3.90625,3.90625,-8.30078125,38.57421875,0.0,0
1586278051.8797727,3,2,-32.71484375,-2.44140625,-18.06640625,-6.8359375,0.0,0
1586278051.883679,3,2,-35.64453125,-9.27734375,-22.4609375,-39.0625,0.0,0
1586278051.8875852,3,2,-18.5546875,-14.6484375,-22.94921875,-14.16015625,0.0,0
1586278051.8914914,3,2,-4.39453125,-6.8359375,-30.2734375,42.48046875,0.0,0
1586278051.8953977,3,2,-9.765625,13.671875,-22.4609375,36.1328125,0.0,0
1586278051.899304,3,2,-28.3203125,20.5078125,-4.39453125,-14.6484375,0.0,0
1586278051.9032102,3,2,-36.1328125,12.20703125,-6.8359375,-36.62109375,0.0,0
1586278051.9071164,3,2,-17.08984375,2.9296875,-15.625,-6.34765625,0.0,0
1586278051.9110227,3,2,-0.48828125,-0.48828125,-22.4609375,25.390625,0.0,0
1586278051.914929,3,2,-5.859375,8.30078125,-25.390625,24.4140625,0.0,0
1586278051.9188352,3,2,-6.34765625,19.53125,-14.16015625,6.8359375,0.0,0
1586278051.9227414,3,2,-19.04296875,15.13671875,-16.6015625,-24.4140625,0.0,0
1586278051.9266477,3,2,-19.53125,15.625,-23.92578125,-9.765625,0.0,0
1586278051.930554,3,2,17.08984375,19.04296875,-18.5546875,44.921875,0.0,0
1586278051.9344602,3,2,15.625,11.71875,-18.06640625,60.546875,0.0,0
1586278051.9383664,3,2,-19.53125,9.27734375,-20.01953125,18.5546875,0.0,0
1586278051.9422727,3,2,-38.0859375,20.5078125,-17.578125,-33.203125,0.0,0
1586278051.946179,3,2,-24.90234375,18.5546875,-19.53125,-34.1796875,0.0,0
1586278051.9500852,3,2,-0.48828125,12.6953125,-21.97265625,17.08984375,0.0,0
1586278051.9539914,3,2,-1.953125,20.01953125,-18.06640625,35.15625,0.0,0
1586278051.9578977,3,2,-21.97265625,24.4140625,-13.18359375,-3.41796875,0.0,0
1586278051.961804,3,2,-20.99609375,25.390625,-8.7890625,-42.96875,0.0,0
1586278051.9657102,3,2,-8.30078125,16.11328125,-17.578125,-31.25,0.0,0
1586278051.9696164,3,2,0.0,12.20703125,-23.92578125,17.578125,0.0,0
1586278051.9735227,3,2,1.46484375,9.765625,-14.6484375,36.62109375,0.0,0
1586278051.977429,3,2,-9.765625,2.44140625,-15.625,18.5546875,0.0,0
1586278051.9813352,3,2,-25.87890625,3.41796875,-17.08984375,-17.578125,0.0,0
1586278051.9852414,3,2,-23.4375,11.23046875,-0.48828125,-22.4609375,0.0,0
1586278051.9891477,3,2,3.41796875,22.94921875,-11.71875,18.5546875,0.0,0
1586278051.993054,3,2,9.765625,20.99609375,-24.4140625,45.41015625,0.0,0
1586278051.9969602,3,2,-5.37109375,18.5546875,-3.41796875,25.87890625,0.0,0
1586278052.0008664,3,2,-24.4140625,18.06640625,1.953125,-8.7890625,0.0,0
1586278052.0047727,3,2,-22.94921875,13.18359375,-20.5078125,-28.80859375,0.0,0
1586278052.008679,3,2,-2.44140625,16.11328125,-27.34375,-4.39453125,0.0,0
1586278052.0125852,3,2,11.23046875,15.625,-13.671875,36.1328125,0.0,0
1586278052.0164914,3,2,-11.23046875,4.8828125,-17.578125,15.13671875,0.0,0
1586278052.0203977,3,2,-32.2265625,10.25390625,-22.94921875,-31.25,0.0,0
1586278052.024304,3,2,-21.97265625,11.71875,-22.94921875,-39.55078125,0.0,0
1586278052.0282102,3,2,-14.16015625,4.39453125,-26.85546875,-11.23046875,0.0,0
1586278052.0321164,3,2,-0.9765625,15.625,-27.83203125,30.2734375,0.0,0
1586278052.0360227,3,2,-4.39453125,19.53125,-16.6015625,35.64453125,0.0,0
1586278052.039929,3,2,-29.78515625,11.23046875,-12.20703125,-11.71875,0.0,0
1586278052.0438352,3,2,-33.69140625,3.90625,-13.671875,-32.2265625,0.0,0
1586278052.0477414,3,2,-12.6953125,1.953125,-27.83203125,-3.90625,0.0,0
1586278052.0516477,3,2,4.39453125,8.7890625,-27.83203125,25.390625,0.0,0
1586278052.055554,3,2,0.9765625,3.41796875,-10.25390625,35.15625,0.0,0
1586278052.0594602,3,2,-23.4375,2.9296875,-20.01953125,0.48828125,0.0,0
1586278052.0633664,3,2,-36.1328125,12.6953125,-36.62109375,-44.43359375,0.0,0
1586278052.0672727,3,2,-17.578125,2.9296875,-27.34375,-20.5078125,0.0,0
1586278052.071179,3,2,-3.41796875,0.9765625,-11.71875,32.71484375,0.0,0
1586278052.0750852,3,2,-4.8828125,6.8359375,-16.6015625,42.48046875,0.0,0
1586278052.0789914,3,2,-13.18359375,11.23046875,-27.83203125,-3.90625,0.0,0
1586278052.0828977,3,2,-18.5546875,15.13671875,-22.94921875,-33.69140625,0.0,0
1586278052.086804,3,2,-9.27734375,15.625,-23.92578125,-10.7421875,0.0,0
1586278052.0907102,3,2,9.765625,3.41796875,-33.203125,31.25,0.0,0
1586278052.0946164,3,2,16.6015625,-6.34765625,-25.87890625,41.015625,0.0,0
1586278052.0985227,3,2,2.9296875,8.30078125,-20.5078125,8.30078125,0.0,0
1586278052.102429,3,2,-6.34765625,13.671875,-20.99609375,-23.92578125,0.0,0
1586278052.1063352,3,2,-11.23046875,8.30078125,-8.7890625,-15.625,0.0,0
1586278052.1102414,3,2,-0.9765625,2.9296875,-21.97265625,19.53125,0.0,0
1586278052.1141477,3,2,7.8125,-6.8359375,-32.71484375,34.1796875,0.0,0
1586278052.118054,3,2,-17.08984375,1.953125,-19.04296875,10.7421875,0.0,0
1586278052.1219602,3,2,-39.0625,18.5546875,-31.25,-26.85546875,0.0,0
1586278052.1258664,3,2,-32.2265625,15.625,-19.53125,-27.83203125,0.0,0
1586278052.1297727,3,2,-0.9765625,9.27734375,2.44140625,17.578125,0.0,0
1586278052.133679,3,2,9.27734375,9.27734375,-4.8828125,41.50390625,0.0,0
1586278052.1375852,3,2,-13.18359375,4.39453125,-21.484375,16.6015625,0.0,0
1586278052.1414914,3,2,-31.25,-6.8359375,-22.94921875,-22.94921875,0.0,0
1586278052.1453977,3,2,-21.484375,-5.37109375,-21.97265625,-12.6953125,0.0,0
1586278052.149304,3,2,6.34765625,10.7421875,-24.90234375,22.4609375,0.0,0
1586278052.1532102,3,2,12.6953125,17.578125,-21.484375,37.59765625,0.0,0
1586278052.1571164,3,2,-4.8828125,6.34765625,-19.04296875,22.4609375,0.0,0
1586278052.1610227,3,2,-23.4375,7.8125,-18.06640625,-28.80859375,0.0,0
1586278052.164929,3,2,-22.4609375,19.04296875,-8.30078125,-46.875,0.0,0
1586278052.1688352,3,2,-6.8359375,19.53125,-7.32421875,-16.6015625,0.0,0
1586278052.1727414,3,2,3.90625,8.30078125,-18.06640625,11.23046875,0.0,0
1586278052.1766477,3,2,-9.27734375,-0.48828125,-18.06640625,-1.46484375,0.0,0
1586278052.180554,3,2,-30.2734375,1.953125,-22.4609375,-44.921875,0.0,0
1586278052.1844602,3,2,-30.2734375,1.46484375,-37.59765625,-56.640625,0.0,0
1586278052.1883664,3,2,-7.8125,-0.48828125,-35.15625,-26.85546875,0.0,0
1586278052.1922727,3,2,3.90625,-12.20703125,-31.25,31.25,0.0,0
1586278052.196179,3,2,-7.32421875,-2.44140625,-23.92578125,20.5078125,0.0,0
1586278052.2000852,3,2,-22.4609375,20.01953125,-20.5078125,-37.109375,0.0,0
1586278052.2039914,3,2,-26.85546875,14.16015625,-26.85546875,-46.38671875,0.0,0
1586278052.2078977,3,2,-7.8125,9.27734375,-19.53125,-23.92578125,0.0,0
1586278052.211804,3,2,1.46484375,16.11328125,-7.8125,15.625,0.0,0
1586278052.2157102,3,2,0.0,13.671875,-10.7421875,16.11328125,0.0,0
1586278052.2196164,3,2,-17.08984375,8.7890625,-15.13671875,-27.34375,0.0,0
1586278052.2235227,3,2,-32.2265625,8.7890625,-16.6015625,-55.17578125,0.0,0
1586278052.227429,3,2,-20.5078125,-4.8828125,-27.34375,-29.78515625,0.0,0
1586278052.2313352,3,2,-3.90625,-17.578125,-16.6015625,20.99609375,0.0,0
1586278052.2352414,3,2,0.9765625,-5.859375,-5.37109375,32.71484375,0.0,0
1586278052.2391477,3,2,-24.90234375,6.34765625,-15.13671875,-13.18359375,0.0,0
1586278052.243054,3,2,-40.0390625,24.4140625,-8.30078125,-59.5703125,0.0,0
1586278052.2469602,3,2,-12.20703125,22.94921875,-4.39453125,-38.57421875,0.0,0
1586278052.2508664,3,2,16.6015625,8.7890625,-11.71875,19.53125,0.0,0
1586278052.2547727,3,2,9.27734375,12.20703125,-16.11328125,41.015625,0.0,0
1586278052.258679,3,2,-16.11328125,14.6484375,-15.13671875,12.6953125,0.0,0
1586278052.2625852,3,2,-24.4140625,12.20703125,-18.06640625,-20.99609375,0.0,0
1586278052.2664914,3,2,-10.7421875,9.27734375,-24.4140625,-24.90234375,0.0,0
1586278052.2703977,3,2,3.41796875,2.44140625,-21.97265625,16.6015625,0.0,0
1586278052.274304,3,2,7.32421875,0.0,-29.78515625,41.015625,0.0,0
1586278052.2782102,3,2,-6.8359375,9.27734375,-32.2265625,13.671875,0.0,0
1586278052.2821164,3,2,-27.83203125,8.30078125,-27.34375,-21.97265625,0.0,0
1586278052.2860227,3,2,-24.90234375,8.30078125,-33.203125,-25.87890625,0.0,0
1586278052.289929,3,2,-14.16015625,7.32421875,-22.4609375,5.859375,0.0,0
1586278052.2938352,3,2,-2.9296875,3.41796875,-11.71875,38.0859375,0.0,0
1586278052.2977414,3,2,-0.48828125,8.7890625,-12.6953125,26.85546875,0.0,0
1586278052.3016477,3,2,-23.92578125,15.625,-15.625,-24.90234375,0.0,0
1586278052.305554,3,2,-31.25,8.7890625,-14.16015625,-32.71484375,0.0,0
1586278052.3094602,3,2,-6.34765625,-6.8359375,-17.578125,13.18359375,0.0,0
1586278052.3133664,3,2,6.8359375,1.953125,-25.87890625,42.96875,0.0,0
1586278052.3172727,3,2,-4.8828125,14.6484375,-10.7421875,25.390625,0.0,0
1586278052.321179,3,2,-17.578125,8.7890625,-5.859375,-19.53125,0.0,0
1586278052.3250852,3,2,-7.32421875,2.9296875,-25.87890625,-28.80859375,0.0,0
1586278052.3289914,3,2,8.7890625,15.13671875,-23.4375,6.34765625,0.0,0
1586278052.3328977,3,2,11.71875,27.34375,-18.5546875,35.15625,0.0,0
1586278052.336804,3,2,2.44140625,21.484375,-22.4609375,21.97265625,0.0,0
1586278052.3407102,3,2,-5.37109375,8.7890625,-10.25390625,-10.7421875,0.0,0
1586278052.3446164,3,2,-6.8359375,-1.46484375,-18.5546875,-38.57421875,0.0,0
1586278052.3485227,3,2,-4.39453125,20.5078125,-32.71484375,-18.06640625,0.0,0
1586278052.352429,3,2,19.04296875,36.62109375,-24.90234375,40.0390625,0.0,0
1586278052.3563352,3,2,17.08984375,21.484375,-6.34765625,39.0625,0.0,0
1586278052.3602414,3,2,-13.18359375,4.39453125,-0.9765625,-13.671875,0.0,0
1586278052.3641477,3,2,-18.06640625,2.44140625,-11.71875,-40.52734375,0.0,0
1586278052.368054,3,2,2.44140625,-3.41796875,-15.13671875,-2.9296875,0.0,0
1586278052.3719602,3,2,18.06640625,0.9765625,-14.16015625,46.875,0.0,0
1586278052.3758664,3,2,7.8125,14.16015625,-14.16015625,42.96875,0.0,0
1586278052.3797727,3,2,-18.06640625,15.13671875,-14.16015625,-4.8828125,0.0,0
1586278052.383679,3,2,-23.92578125,11.23046875,-16.11328125,-29.296875,0.0,0
1586278052.3875852,3,2,-0.48828125,5.37109375,-18.06640625,0.0,0.0,0
1586278052.3914914,3,2,12.6953125,12.20703125,-22.4609375,23.92578125,0.0,0
1586278052.3953977,3,2,3.41796875,18.06640625,-18.5546875,24.90234375,0.0,0
1586278052.399304,3,2,-11.71875,15.625,-10.25390625,-8.7890625,0.0,0
1586278052.4032102,3,2,-20.99609375,-2.44140625,-17.08984375,-46.875,0.0,0
1586278052.4071164,3,2,-22.4609375,-1.953125,-20.01953125,-31.73828125,0.0,0
1586278052.4110227,3,2,1.953125,14.16015625,-13.18359375,26.3671875,0.0,0
1586278052.414929,3,2,18.06640625,13.671875,-12.20703125,47.8515625,0.0,0
1586278052.4188352,3,2,-5.859375,12.20703125,-16.6015625,4.8828125,0.0,0
1586278052.4227414,3,2,-31.25,18.5546875,-19.53125,-26.85546875,0.0,0
1586278052.4266477,3,2,-21.484375,11.23046875,-15.625,-14.16015625,0.0,0
1586278052.430554,3,2,16.6015625,-0.9765625,-14.6484375,29.78515625,0.0,0
1586278052.4344602,3,2,29.78515625,20.5078125,-14.16015625,46.38671875,0.0,0
1586278052.4383664,3,2,2.44140625,31.25,-13.18359375,7.32421875,0.0,0
1586278052.4422727,3,2,-14.6484375,23.92578125,-10.7421875,-18.06640625,0.0,0
1586278052.446179,3,2,-7.32421875,20.5078125,-13.671875,-17.578125,0.0,0
1586278052.4500852,3,2,1.953125,-0.9765625,-29.78515625,10.25390625,0.0,0
1586278052.4539914,3,2,2.44140625,-6.34765625,-22.4609375,41.015625,0.0,0
1586278052.4578977,3,2,-8.30078125,6.8359375,-7.32421875,26.85546875,0.0,0
1586278052.461804,3,2,-12.6953125,7.8125,-6.8359375,-6.8359375,0.0,0
1586278052.4657102,3,2,-11.71875,6.34765625,-15.625,-6.34765625,0.0,0
1586278052.4696164,3,2,2.44140625,9.27734375,-13.671875,36.1328125,0.0,0
1586278052.4735227,3,2,9.765625,11.23046875,0.0,70.80078125,0.0,0
1586278052.477429,3,2,-3.41796875,-6.8359375,-10.25390625,39.0625,0.0,0
1586278052.4813352,3,2,-23.4375,-5.37109375,-24.4140625,-28.3203125,0.0,0
1586278052.4852414,3,2,-25.87890625,18.5546875,-14.16015625,-39.0625,0.0,0
1586278052.4891477,3,2,5.859375,22.4609375,-11.23046875,3.41796875,0.0,0
1586278052.493054,3,2,24.90234375,15.625,-18.5546875,41.9921875,0.0,0
1586278052.4969602,3,2,12.6953125,4.8828125,-11.71875,21.97265625,0.0,0
1586278052.5008664,3,2,-4.8828125,6.8359375,-11.23046875,-21.97265625,0.0,0
1586278052.5047727,3,2,-3.41796875,21.484375,-30.76171875,-29.296875,0.0,0
1586278052.508679,3,2,17.08984375,19.04296875,-28.80859375,-4.39453125,0.0,0
1586278052.5125852,3,2,25.87890625,16.11328125,-18.5546875,25.390625,0.0,0
1586278052.5164914,3,2,7.32421875,5.859375,-23.4375,9.27734375,0.0,0
1586278052.5203977,3,2,-10.25390625,-3.41796875,-21.97265625,-22.4609375,0.0,0
1586278052.524304,3,2,-23.4375,11.23046875,-24.90234375,-51.26953125,0.0,0
1586278052.5282102,3,2,-24.4140625,8.7890625,-37.109375,-46.38671875,0.0,0
1586278052.5321164,3,2,-0.48828125,-1.953125,-26.85546875,20.5078125,0.0,0
1586278052.5360227,3,2,2.9296875,3.41796875,-12.20703125,42.48046875,0.0,0
1586278052.539929,3,2,-17.578125,9.27734375,-9.27734375,-3.90625,0.0,0
1586278052.5438352,3,2,-17.08984375,16.6015625,-8.30078125,-24.4140625,0.0,0
1586278052.5477414,3,2,8.30078125,10.7421875,-5.859375,4.8828125,0.0,0
1586278052.5516477,3,2,32.71484375,5.37109375,-6.8359375,40.52734375,0.0,0
1586278052.555554,3,2,20.99609375,6.34765625,-5.859375,41.50390625,0.0,0
1586278052.5594602,3,2,-9.27734375,7.32421875,-4.39453125,7.32421875,0.0,0
1586278052.5633664,3,2,-18.5546875,9.27734375,-12.6953125,-12.6953125,0.0,0
1586278052.5672727,3,2,0.0,-1.953125,-23.4375,1.46484375,0.0,0
1586278052.571179,3,2,5.859375,4.39453125,-27.83203125,20.01953125,0.0,0
1586278052.5750852,3,2,-1.46484375,16.11328125,-13.671875,23.92578125,0.0,0
1586278052.5789914,3,2,-13.18359375,12.20703125,2.9296875,-5.859375,0.0,0
1586278052.5828977,3,2,-23.92578125,12.6953125,-4.8828125,-47.36328125,0.0,0
1586278052.586804,3,2,-12.6953125,18.5546875,-12.6953125,-31.25,0.0,0
1586278052.5907102,3,2,10.7421875,21.97265625,-1.953125,21.484375,0.0,0
1586278052.5946164,3,2,20.5078125,18.06640625,1.46484375,38.57421875,0.0,0
1586278052.5985227,3,2,1.953125,20.99609375,-11.71875,4.8828125,0.0,0
1586278052.602429,3,2,-7.8125,16.6015625,-12.6953125,-30.76171875,0.0,0
1586278052.6063352,3,2,13.18359375,5.859375,-11.23046875,-20.01953125,0.0,0
1586278052.6102414,3,2,21.97265625,2.44140625,-20.01953125,24.4140625,0.0,0
1586278052.6141477,3,2,18.06640625,5.37109375,-26.3671875,47.8515625,0.0,0
1586278052.618054,3,2,0.0,10.7421875,-28.3203125,5.859375,0.0,0
1586278052.6219602,3,2,-21.97265625,2.9296875,-19.04296875,-39.55078125,0.0,0
1586278052.6258664,3,2,-12.6953125,3.90625,-10.25390625,-38.57421875,0.0,0
1586278052.6297727,3,2,-0.9765625,10.7421875,-14.6484375,4.8828125,0.0,0
1586278052.633679,3,2,-12.6953125,10.7421875,-19.04296875,26.85546875,0.0,0
1586278052.6375852,3,2,-29.296875,12.6953125,-9.765625,3.41796875,0.0,0
1586278052.6414914,3,2,-38.0859375,8.7890625,-7.8125,-30.76171875,0.0,0
1586278052.6453977,3,2,-33.69140625,2.9296875,-16.11328125,-41.50390625,0.0,0
1586278052.649304,3,2,-13.671875,8.7890625,-24.4140625,-3.41796875,0.0,0
1586278052.6532102,3,2,1.953125,10.25390625,-20.5078125,47.8515625,0.0,0
1586278052.6571164,3,2,2.9296875,2.44140625,-21.97265625,50.29296875,0.0,0
1586278052.6610227,3,2,-8.7890625,5.859375,-39.55078125,-8.7890625,0.0,0
1586278052.664929,3,2,-22.4609375,3.90625,-27.83203125,-32.71484375,0.0,0
1586278052.6688352,3,2,-4.8828125,-2.44140625,-14.16015625,11.23046875,0.0,0
1586278052.6727414,3,2,11.23046875,-0.48828125,-10.7421875,37.109375,0.0,0
1586278052.6766477,3,2,-4.39453125,0.0,-10.7421875,13.671875,0.0,0
1586278052.680554,3,2,-17.578125,7.32421875,-15.625,-31.73828125,0.0,0
1586278052.6844602,3,2,-5.859375,6.8359375,-33.203125,-43.45703125,0.0,0
1586278052.6883664,3,2,9.27734375,3.41796875,-34.66796875,-16.11328125,0.0,0
1586278052.6922727,3,2,14.6484375,7.8125,-18.06640625,11.71875,0.0,0
1586278052.696179,3,2,4.8828125,12.20703125,-10.25390625,19.04296875,0.0,0
1586278052.7000852,3,2,-6.8359375,2.44140625,-18.5546875,-6.34765625,0.0,0
1586278052.7039914,3,2,-10.7421875,2.44140625,-27.83203125,-31.73828125,0.0,0
1586278052.7078977,3,2,-1.953125,-12.20703125,-19.53125,-8.30078125,0.0,0
1586278052.711804,3,2,8.30078125,-22.4609375,-35.15625,24.4140625,0.0,0
1586278052.7157102,3,2,9.27734375,20.99609375,-37.59765625,38.0859375,0.0,0
1586278052.7196164,3,2,-9.27734375,38.0859375,-19.04296875,8.30078125,0.0,0
1586278052.7235227,3,2,-20.5078125,27.83203125,-28.80859375,-31.25,0.0,0
1586278052.727429,3,2,1.46484375,19.53125,-35.15625,-10.7421875,0.0,0
1586278052.7313352,3,2,21.484375,19.04296875,-24.90234375,36.1328125,0.0,0
1586278052.7352414,3,2,10.7421875,13.18359375,-23.92578125,38.0859375,0.0,0
1586278052.7391477,3,2,-16.6015625,7.32421875,-22.94921875,-11.23046875,0.0,0
1586278052.743054,3,2,-26.3671875,2.44140625,-19.53125,-38.0859375,0.0,0
1586278052.7469602,3,2,-11.23046875,-6.8359375,-20.01953125,-20.99609375,0.0,0
1586278052.7508664,3,2,2.9296875,-7.32421875,-26.85546875,11.71875,0.0,0
1586278052.7547727,3,2,-4.8828125,-9.765625,-30.76171875,20.01953125,0.0,0
1586278052.758679,3,2,-18.06640625,-0.48828125,-20.5078125,-5.37109375,0.0,0
1586278052.7625852,3,2,-23.92578125,12.6953125,-16.6015625,-28.3203125,0.0,0
1586278052.7664914,3,2,-14.16015625,18.06640625,-17.578125,-34.66796875,0.0,0
1586278052.7703977,3,2,12.6953125,21.97265625,-8.7890625,3.90625,0.0,0
1586278052.774304,3,2,27.34375,20.01953125,-6.34765625,44.921875,0.0,0
1586278052.7782102,3,2,6.34765625,12.20703125,-13.671875,19.04296875,0.0,0
1586278052.7821164,3,2,-20.5078125,7.8125,-23.92578125,-34.66796875,0.0,0
1586278052.7860227,3,2,-10.7421875,8.30078125,-24.4140625,-39.0625,0.0,0
1586278052.789929,3,2,13.671875,7.8125,-16.6015625,7.8125,0.0,0
1586278052.7938352,3,2,21.484375,0.48828125,-22.94921875,36.62109375,0.0,0
1586278052.7977414,3,2,4.8828125,3.41796875,-29.296875,11.23046875,0.0,0
1586278052.8016477,3,2,-14.6484375,18.5546875,-25.87890625,-33.69140625,0.0,0
1586278052.805554,3,2,-8.7890625,24.90234375,-26.85546875,-18.06640625,0.0,0
1586278052.8094602,3,2,5.37109375,24.4140625,-21.97265625,24.90234375,0.0,0
1586278052.8133664,3,2,5.859375,17.578125,-12.6953125,42.48046875,0.0,0
1586278052.8172727,3,2,0.9765625,1.953125,-14.6484375,30.2734375,0.0,0
1586278052.821179,3,2,-21.484375,6.34765625,-10.7421875,-27.83203125,0.0,0
1586278052.8250852,3,2,-25.390625,6.34765625,-9.27734375,-55.17578125,0.0,0
1586278052.8289914,3,2,-1.953125,-5.859375,-31.73828125,-14.16015625,0.0,0
1586278052.8328977,3,2,18.5546875,0.48828125,-27.83203125,36.62109375,0.0,0
1586278052.836804,3,2,4.39453125,6.34765625,-20.99609375,27.83203125,0.0,0
1586278052.8407102,3,2,-18.5546875,-1.953125,-23.92578125,-26.85546875,0.0,0
1586278052.8446164,3,2,-9.27734375,-9.27734375,-24.90234375,-42.48046875,0.0,0
1586278052.8485227,3,2,-1.46484375,-6.8359375,-25.87890625,0.48828125,0.0,0
1586278052.852429,3,2,7.32421875,-7.8125,-23.92578125,52.24609375,0.0,0
1586278052.8563352,3,2,2.9296875,-1.953125,-22.94921875,38.57421875,0.0,0
1586278052.8602414,3,2,-21.484375,2.9296875,-14.6484375,-22.4609375,0.0,0
1586278052.8641477,3,2,-21.484375,2.9296875,-10.7421875,-44.921875,0.0,0
1586278052.868054,3,2,-6.8359375,0.48828125,-20.99609375,-18.06640625,0.0,0
1586278052.8719602,3,2,0.0,-0.9765625,-20.01953125,13.671875,0.0,0
1586278052.8758664,3,2,-4.39453125,-5.859375,-15.625,19.04296875,0.0,0
1586278052.8797727,3,2,-25.87890625,-5.859375,-22.4609375,-17.578125,0.0,0
1586278052.883679,3,2,-38.57421875,0.0,-27.34375,-46.38671875,0.0,0
1586278052.8875852,3,2,-16.11328125,3.41796875,-18.5546875,-25.390625,0.0,0
1586278052.8914914,3,2,6.8359375,1.46484375,-10.7421875,15.13671875,0.0,0
1586278052.8953977,3,2,3.90625,-12.20703125,-16.11328125,42.48046875,0.0,0
1586278052.899304,3,2,-20.99609375,-4.8828125,-16.6015625,11.71875,0.0,0
1586278052.9032102,3,2,-36.62109375,11.23046875,-18.5546875,-44.921875,0.0,0
1586278052.9071164,3,2,-6.34765625,7.32421875,-19.04296875,-28.80859375,0.0,0
1586278052.9110227,3,2,20.99609375,5.37109375,-14.16015625,27.34375,0.0,0
1586278052.914929,3,2,4.39453125,16.11328125,-18.5546875,44.921875,0.0,0
1586278052.9188352,3,2,-16.6015625,7.8125,-16.6015625,10.25390625,0.0,0
1586278052.9227414,3,2,-14.6484375,2.9296875,-19.04296875,-15.625,0.0,0
1586278052.9266477,3,2,-10.7421875,10.7421875,-29.296875,-12.6953125,0.0,0
1586278052.930554,3,2,-5.859375,7.8125,-22.4609375,24.90234375,0.0,0
1586278052.9344602,3,2,-6.8359375,3.41796875,-14.16015625,52.734375,0.0,0
1586278052.9383664,3,2,-27.34375,10.7421875,-10.7421875,16.11328125,0.0,0
1586278052.9422727,3,2,-36.62109375,11.71875,-8.7890625,-19.53125,0.0,0
1586278052.946179,3,2,-33.203125,4.39453125,-16.6015625,-23.92578125,0.0,0
1586278052.9500852,3,2,-13.671875,7.8125,-13.18359375,2.44140625,0.0,0
1586278052.9539914,3,2,3.41796875,9.765625,-18.06640625,39.0625,0.0,0
1586278052.9578977,3,2,-12.6953125,4.39453125,-26.3671875,20.5078125,0.0,0
1586278052.961804,3,2,-26.85546875,4.39453125,-18.5546875,-35.15625,0.0,0
1586278052.9657102,3,2,-21.97265625,0.48828125,-4.8828125,-35.64453125,0.0,0
1586278052.9696164,3,2,-3.90625,-4.39453125,-6.8359375,19.04296875,0.0,0
1586278052.9735227,3,2,-2.9296875,-3.90625,-11.71875,40.0390625,0.0,0
1586278052.977429,3,2,-26.85546875,-11.23046875,-15.13671875,10.25390625,0.0,0
1586278052.9813352,3,2,-31.73828125,-1.953125,-17.08984375,-30.76171875,0.0,0
1586278052.9852414,3,2,-18.5546875,11.23046875,-20.01953125,-31.73828125,0.0,0
1586278052.9891477,3,2,-6.8359375,1.953125,-37.109375,-1.46484375,0.0,0
1586278052.993054,3,2,-14.16015625,-2.44140625,-38.57421875,16.11328125,0.0,0
1586278052.9969602,3,2,-20.99609375,8.30078125,-20.99609375,14.16015625,0.0,0
1586278053.0008664,3,2,-39.0625,12.6953125,-18.06640625,-38.0859375,0.0,0
1586278053.0047727,3,2,-48.828125,0.0,-29.78515625,-60.05859375,0.0,0
1586278053.008679,3,2,-27.34375,0.48828125,-25.390625,-16.11328125,0.0,0
1586278053.0125852,3,2,-12.20703125,4.39453125,-9.765625,31.25,0.0,0
1586278053.0164914,3,2,-26.85546875,4.8828125,-11.23046875,33.69140625,0.0,0
1586278053.0203977,3,2,-46.875,4.8828125,-15.13671875,-5.859375,0.0,0
1586278053.024304,3,2,-30.76171875,3.90625,-11.23046875,-27.34375,0.0,0
1586278053.0282102,3,2,2.9296875,8.30078125,-11.23046875,0.9765625,0.0,0
1586278053.0321164,3,2,25.390625,3.90625,-16.11328125,46.875,0.0,0
1586278053.0360227,3,2,17.578125,1.46484375,-23.4375,40.0390625,0.0,0
1586278053.039929,3,2,-3.41796875,6.34765625,-27.34375,-9.27734375,0.0,0
1586278053.0438352,3,2,-10.7421875,-0.48828125,-10.7421875,-41.50390625,0.0,0
1586278053.0477414,3,2,-1.46484375,-3.90625,-18.5546875,-24.4140625,0.0,0
1586278053.0516477,3,2,7.8125,4.39453125,-35.15625,13.18359375,0.0,0
1586278053.055554,3,2,10.7421875,3.90625,-25.87890625,27.34375,0.0,0
1586278053.0594602,3,2,-13.671875,-5.37109375,-9.765625,-3.90625,0.0,0
1586278053.0633664,3,2,-43.45703125,-1.953125,-11.71875,-51.26953125,0.0,0
1586278053.0672727,3,2,-37.59765625,-2.44140625,-26.85546875,-49.8046875,0.0,0
1586278053.071179,3,2,-17.578125,-6.8359375,-22.4609375,0.0,0.0,0
1586278053.0750852,3,2,-6.8359375,-1.953125,-17.578125,28.3203125,0.0,0
1586278053.0789914,3,2,-29.296875,4.39453125,-22.4609375,-11.71875,0.0,0
1586278053.0828977,3,2,-54.6875,6.34765625,-26.85546875,-53.7109375,0.0,0
1586278053.086804,3,2,-34.66796875,2.44140625,-20.5078125,-38.0859375,0.0,0
1586278053.0907102,3,2,-6.34765625,-6.34765625,-22.4609375,16.11328125,0.0,0
1586278053.0946164,3,2,-6.34765625,-1.953125,-22.4609375,36.62109375,0.0,0
1586278053.0985227,3,2,-20.5078125,9.765625,-12.20703125,3.90625,0.0,0
1586278053.102429,3,2,-32.2265625,-6.8359375,-18.5546875,-34.1796875,0.0,0
1586278053.1063352,3,2,-25.87890625,-13.18359375,-23.92578125,-32.71484375,0.0,0
1586278053.1102414,3,2,-1.46484375,3.41796875,-20.99609375,8.7890625,0.0,0
1586278053.1141477,3,2,8.7890625,6.8359375,-15.13671875,35.64453125,0.0,0
1586278053.118054,3,2,-9.27734375,-0.9765625,-23.92578125,15.625,0.0,0
1586278053.1219602,3,2,-35.15625,7.32421875,-23.92578125,-18.06640625,0.0,0
1586278053.1258664,3,2,-39.55078125,7.8125,-21.97265625,-27.83203125,0.0,0
1586278053.1297727,3,2,-20.5078125,6.8359375,-28.3203125,9.27734375,0.0,0
1586278053.133679,3,2,-8.30078125,2.9296875,-26.85546875,42.48046875,0.0,0
1586278053.1375852,3,2,-16.11328125,0.0,-20.5078125,20.99609375,0.0,0
1586278053.1414914,3,2,-33.69140625,-0.9765625,-9.765625,-38.0859375,0.0,0
1586278053.1453977,3,2,-25.87890625,-12.6953125,-13.671875,-57.6171875,0.0,0
1586278053.149304,3,2,1.953125,-2.44140625,-35.15625,-1.953125,0.0,0
1586278053.1532102,3,2,11.71875,11.23046875,-28.3203125,48.33984375,0.0,0
1586278053.1571164,3,2,0.0,9.765625,-3.90625,24.4140625,0.0,0
1586278053.1610227,3,2,-18.5546875,11.23046875,-26.3671875,-28.80859375,0.0,0
1586278053.164929,3,2,-20.01953125,4.39453125,-30.2734375,-48.33984375,0.0,0
1586278053.1688352,3,2,9.27734375,0.0,-10.25390625,-6.8359375,0.0,0
1586278053.1727414,3,2,23.92578125,7.8125,-12.6953125,37.59765625,0.0,0
1586278053.1766477,3,2,9.27734375,15.13671875,-16.6015625,20.99609375,0.0,0
1586278053.180554,3,2,-10.25390625,11.71875,-31.25,-2.9296875,0.0,0
1586278053.1844602,3,2,-20.5078125,3.41796875,-31.73828125,-28.3203125,0.0,0
1586278053.1883664,3,2,-4.39453125,-8.7890625,-24.4140625,-23.92578125,0.0,0
1586278053.1922727,3,2,14.16015625,-13.671875,-17.578125,31.73828125,0.0,0
1586278053.196179,3,2,8.7890625,6.34765625,-12.6953125,33.203125,0.0,0
1586278053.2000852,3,2,-20.5078125,5.37109375,-17.578125,-20.01953125,0.0,0
1586278053.2039914,3,2,-27.34375,4.8828125,-20.5078125,-52.24609375,0.0,0
1586278053.2078977,3,2,6.8359375,1.953125,-19.53125,-15.625,0.0,0
1586278053.211804,3,2,20.99609375,-7.32421875,-21.97265625,31.73828125,0.0,0
1586278053.2157102,3,2,8.30078125,0.0,-32.2265625,37.109375,0.0,0
1586278053.2196164,3,2,-21.97265625,4.8828125,-30.2734375,0.48828125,0.0,0
1586278053.2235227,3,2,-38.0859375,1.953125,-23.92578125,-28.80859375,0.0,0
1586278053.227429,3,2,-16.6015625,-9.27734375,-18.5546875,-3.41796875,0.0,0
1586278053.2313352,3,2,1.46484375,-12.20703125,-19.04296875,20.01953125,0.0,0
1586278053.2352414,3,2,-8.7890625,-8.30078125,-28.3203125,23.4375,0.0,0
1586278053.2391477,3,2,-21.484375,-2.44140625,-24.90234375,2.9296875,0.0,0
1586278053.243054,3,2,-34.1796875,-0.48828125,-21.484375,-31.73828125,0.0,0
1586278053.2469602,3,2,-24.90234375,-5.859375,-22.94921875,-26.85546875,0.0,0
1586278053.2508664,3,2,10.25390625,-20.5078125,-6.34765625,15.625,0.0,0
1586278053.2547727,3,2,18.06640625,-7.8125,-16.6015625,44.921875,0.0,0
1586278053.258679,3,2,4.8828125,10.7421875,-49.31640625,27.83203125,0.0,0
1586278053.2625852,3,2,-9.27734375,14.6484375,-20.5078125,-6.34765625,0.0,0
1586278053.2664914,3,2,-5.859375,13.18359375,5.37109375,-6.8359375,0.0,0
1586278053.2703977,3,2,16.6015625,7.32421875,-2.44140625,39.55078125,0.0,0
1586278053.274304,3,2,13.671875,5.859375,-9.27734375,61.03515625,0.0,0
1586278053.2782102,3,2,-11.23046875,1.953125,-15.625,11.71875,0.0,0
1586278053.2821164,3,2,-24.4140625,0.0,-13.18359375,-34.66796875,0.0,0
1586278053.2860227,3,2,-16.6015625,0.0,-8.7890625,-35.15625,0.0,0
1586278053.289929,3,2,0.9765625,-4.8828125,-9.27734375,1.953125,0.0,0
1586278053.2938352,3,2,2.9296875,3.90625,-13.671875,25.87890625,0.0,0
1586278053.2977414,3,2,-5.859375,13.671875,-19.53125,14.6484375,0.0,0
1586278053.3016477,3,2,-19.04296875,0.9765625,-17.578125,-19.53125,0.0,0
1586278053.305554,3,2,-12.20703125,-6.34765625,-20.99609375,-29.78515625,0.0,0
1586278053.3094602,3,2,15.625,1.953125,-19.53125,14.16015625,0.0,0
1586278053.3133664,3,2,24.4140625,0.9765625,-20.01953125,46.38671875,0.0,0
1586278053.3172727,3,2,4.39453125,-5.37109375,-16.6015625,30.76171875,0.0,0
1586278053.321179,3,2,-23.92578125,-1.953125,-18.5546875,-17.08984375,0.0,0
1586278053.3250852,3,2,-23.92578125,-4.8828125,-31.73828125,-42.96875,0.0,0
1586278053.3289914,3,2,1.953125,-10.7421875,-41.50390625,-11.71875,0.0,0
1586278053.3328977,3,2,10.25390625,-8.7890625,-43.9453125,34.1796875,0.0,0
1586278053.336804,3,2,-8.30078125,-6.8359375,-32.71484375,23.92578125,0.0,0
1586278053.3407102,3,2,-41.50390625,-11.71875,-21.484375,-18.06640625,0.0,0
1586278053.3446164,3,2,-31.73828125,-7.32421875,-16.11328125,-21.97265625,0.0,0
1586278053.3485227,3,2,2.9296875,-6.34765625,-17.08984375,1.953125,0.0,0
1586278053.352429,3,2,8.30078125,-9.27734375,-21.484375,28.3203125,0.0,0
1586278053.3563352,3,2,4.8828125,5.37109375,-18.06640625,27.34375,0.0,0
1586278053.3602414,3,2,-1.953125,8.30078125,-10.7421875,4.8828125,0.0,0
1586278053.3641477,3,2,-11.71875,3.41796875,-24.90234375,-13.671875,0.0,0
1586278053.368054,3,2,-11.23046875,-0.48828125,-27.83203125,-14.16015625,0.0,0
1586278053.3719602,3,2,2.44140625,-7.32421875,-20.5078125,25.390625,0.0,0
1586278053.3758664,3,2,0.48828125,-11.71875,-25.87890625,34.1796875,0.0,0
1586278053.3797727,3,2,-12.6953125,-4.39453125,-29.296875,-10.7421875,0.0,0
1586278053.383679,3,2,-10.7421875,-8.7890625,-30.2734375,-47.36328125,0.0,0
1586278053.3875852,3,2,3.90625,-24.4140625,-32.2265625,-29.296875,0.0,0
1586278053.3914914,3,2,10.7421875,0.0,-36.1328125,14.6484375,0.0,0
1586278053.3953977,3,2,0.9765625,19.53125,-22.4609375,23.92578125,0.0,0
1586278053.399304,3,2,-19.04296875,14.16015625,-26.3671875,-24.90234375,0.0,0
1586278053.4032102,3,2,-27.34375,0.9765625,-29.296875,-58.10546875,0.0,0
1586278053.4071164,3,2,-9.27734375,-13.18359375,-23.4375,-22.4609375,0.0,0
1586278053.4110227,3,2,8.7890625,-8.30078125,-25.390625,23.92578125,0.0,0
1586278053.414929,3,2,6.34765625,0.9765625,-29.296875,37.109375,0.0,0
1586278053.4188352,3,2,-15.625,-11.71875,-14.6484375,13.671875,0.0,0
1586278053.4227414,3,2,-29.296875,-12.6953125,-11.71875,-25.390625,0.0,0
1586278053.4266477,3,2,-14.16015625,0.0,-16.11328125,-24.90234375,0.0,0
1586278053.430554,3,2,-2.9296875,-1.46484375,-15.13671875,19.53125,0.0,0
1586278053.4344602,3,2,5.859375,-3.90625,-10.7421875,42.48046875,0.0,0
1586278053.4383664,3,2,-1.953125,-0.48828125,-13.671875,14.16015625,0.0,0
1586278053.4422727,3,2,-28.3203125,-8.30078125,-27.34375,-43.9453125,0.0,0
1586278053.446179,3,2,-19.04296875,-7.8125,-25.87890625,-47.8515625,0.0,0
1586278053.4500852,3,2,0.0,-0.48828125,-17.578125,17.08984375,0.0,0
1586278053.4539914,3,2,16.6015625,3.41796875,-20.99609375,50.29296875,0.0,0
1586278053.4578977,3,2,0.9765625,2.9296875,-32.71484375,22.4609375,0.0,0
1586278053.461804,3,2,-25.87890625,1.46484375,-23.4375,-13.671875,0.0,0
1586278053.4657102,3,2,-7.32421875,3.41796875,-7.8125,-9.765625,0.0,0
1586278053.4696164,3,2,10.7421875,1.953125,-20.5078125,19.53125,0.0,0
1586278053.4735227,3,2,9.765625,5.37109375,-28.3203125,41.015625,0.0,0
1586278053.477429,3,2,7.8125,15.13671875,-19.53125,36.1328125,0.0,0
1586278053.4813352,3,2,-7.8125,16.6015625,-11.23046875,-4.8828125,0.0,0
1586278053.4852414,3,2,-10.25390625,-7.32421875,-12.6953125,-27.34375,0.0,0
1586278053.4891477,3,2,11.71875,-19.53125,-13.671875,-0.9765625,0.0,0
1586278053.493054,3,2,23.92578125,3.41796875,-4.8828125,36.62109375,0.0,0
1586278053.4969602,3,2,10.25390625,14.16015625,-8.30078125,30.76171875,0.0,0
1586278053.5008664,3,2,-28.3203125,11.71875,-15.625,-9.27734375,0.0,0
1586278053.5047727,3,2,-52.734375,3.90625,-17.08984375,-34.1796875,0.0,0
1586278053.508679,3,2,-25.87890625,-3.41796875,-19.04296875,-17.08984375,0.0,0
1586278053.5125852,3,2,2.44140625,-5.37109375,-21.97265625,26.85546875,0.0,0
1586278053.5164914,3,2,-6.8359375,-0.9765625,-22.4609375,23.92578125,0.0,0
1586278053.5203977,3,2,-21.484375,8.30078125,-18.5546875,-31.73828125,0.0,0
1586278053.524304,3,2,-20.99609375,12.20703125,-28.3203125,-56.15234375,0.0,0
1586278053.5282102,3,2,-10.25390625,0.48828125,-41.50390625,-29.296875,0.0,0
1586278053.5321164,3,2,0.0,-7.8125,-6.34765625,13.18359375,0.0,0
1586278053.5360227,3,2,1.953125,0.9765625,3.90625,25.390625,0.0,0
1586278053.539929,3,2,-9.765625,8.30078125,-5.37109375,-7.32421875,0.0,0
1586278053.5438352,3,2,-15.625,6.34765625,-10.25390625,-26.85546875,0.0,0
1586278053.5477414,3,2,-2.44140625,5.37109375,-18.06640625,-6.34765625,0.0,0
1586278053.5516477,3,2,13.18359375,0.9765625,-12.6953125,29.78515625,0.0,0
1586278053.555554,3,2,25.390625,7.32421875,-5.859375,50.78125,0.0,0
1586278053.5594602,3,2,3.90625,22.94921875,-12.20703125,13.671875,0.0,0
1586278053.5633664,3,2,-22.4609375,25.87890625,-22.4609375,-34.1796875,0.0,0
1586278053.5672727,3,2,-6.34765625,16.6015625,-31.73828125,-22.94921875,0.0,0
1586278053.571179,4,3,14.16015625,15.13671875,-30.2734375,20.5078125,0.0,0
1586278053.5750852,4,3,13.18359375,20.5078125,-25.87890625,37.109375,0.0,0
1586278053.5789914,4,3,-14.6484375,10.25390625,-32.71484375,-2.44140625,0.0,0
1586278053.5828977,4,3,-31.25,1.953125,-30.2734375,-39.0625,0.0,0
1586278053.586804,4,3,-24.4140625,1.46484375,-17.578125,-16.6015625,0.0,0
1586278053.5907102,4,3,-12.6953125,-11.71875,-20.5078125,35.64453125,0.0,0
1586278053.5946164,4,3,13.18359375,-5.37109375,-28.80859375,58.10546875,0.0,0
1586278053.5985227,4,3,21.484375,14.6484375,-22.4609375,39.55078125,0.0,0
1586278053.602429,4,3,2.44140625,21.484375,-11.23046875,1.953125,0.0,0
1586278053.6063352,4,3,-0.48828125,14.16015625,-6.34765625,-17.578125,0.0,0
1586278053.6102414,4,3,13.18359375,13.671875,-6.34765625,19.04296875,0.0,0
1586278053.6141477,4,3,22.94921875,15.625,-12.20703125,53.22265625,0.0,0
1586278053.618054,4,3,17.578125,3.90625,-12.6953125,27.34375,0.0,0
1586278053.6219602,4,3,1.953125,3.90625,-9.765625,-24.90234375,0.0,0
1586278053.6258664,4,3,-3.90625,17.08984375,-13.671875,-36.1328125,0.0,0
1586278053.6297727,4,3,15.625,17.08984375,-17.578125,4.39453125,0.0,0
1586278053.633679,4,3,34.1796875,16.11328125,-10.7421875,48.828125,0.0,0
1586278053.6375852,4,3,21.97265625,15.13671875,-5.859375,37.59765625,0.0,0
1586278053.6414914,4,3,-6.8359375,14.16015625,-14.16015625,-14.16015625,0.0,0
1586278053.6453977,4,3,-1.46484375,14.6484375,-9.27734375,-16.11328125,0.0,0
1586278053.649304,4,3,29.296875,15.625,-8.7890625,13.18359375,0.0,0
1586278053.6532102,4,3,32.2265625,15.625,-16.11328125,29.78515625,0.0,0
1586278053.6571164,4,3,16.11328125,13.18359375,-21.484375,31.73828125,0.0,0
1586278053.6610227,4,3,-3.90625,6.8359375,-33.69140625,-6.8359375,0.0,0
1586278053.664929,4,3,-7.8125,-0.9765625,-25.87890625,-28.80859375,0.0,0
1586278053.6688352,4,3,13.18359375,4.39453125,-27.83203125,-3.41796875,0.0,0
1586278053.6727414,4,3,16.11328125,14.16015625,-14.6484375,40.52734375,0.0,0
1586278053.6766477,4,3,7.32421875,18.06640625,11.23046875,39.55078125,0.0,0
1586278053.680554,4,3,-7.8125,12.6953125,0.48828125,-15.625,0.0,0
1586278053.6844602,4,3,-26.3671875,-0.48828125,-20.99609375,-44.921875,0.0,0
1586278053.6883664,4,3,-3.90625,0.0,-23.92578125,-18.06640625,0.0,0
1586278053.6922727,4,3,30.76171875,7.32421875,-16.6015625,35.15625,0.0,0
1586278053.696179,4,3,9.765625,8.7890625,-23.92578125,33.69140625,0.0,0
1586278053.7000852,4,3,-16.11328125,9.27734375,-27.83203125,-15.625,0.0,0
1586278053.7039914,4,3,-9.765625,8.7890625,-13.671875,-38.0859375,0.0,0
1586278053.7078977,4,3,5.859375,1.953125,-17.578125,-15.13671875,0.0,0
1586278053.711804,4,3,10.7421875,-2.9296875,-18.06640625,24.90234375,0.0,0
1586278053.7157102,4,3,5.37109375,7.8125,-8.30078125,34.66796875,0.0,0
1586278053.7196164,4,3,-3.41796875,17.578125,-4.39453125,5.37109375,0.0,0
1586278053.7235227,4,3,-15.625,11.23046875,-9.765625,-30.76171875,0.0,0
1586278053.727429,4,3,-9.27734375,6.8359375,-17.578125,-23.92578125,0.0,0
1586278053.7313352,4,3,9.765625,9.27734375,-19.04296875,19.53125,0.0,0
1586278053.7352414,4,3,15.625,12.20703125,-17.578125,43.45703125,0.0,0
1586278053.7391477,4,3,-0.48828125,17.08984375,-21.97265625,20.99609375,0.0,0
1586278053.743054,4,3,-28.80859375,8.7890625,-24.90234375,-21.484375,0.0,0
1586278053.7469602,4,3,-17.578125,1.953125,-22.94921875,-24.90234375,0.0,0
1586278053.7508664,4,3,15.13671875,9.27734375,-21.484375,16.11328125,0.0,0
1586278053.7547727,4,3,18.06640625,13.18359375,-15.13671875,45.41015625,0.0,0
1586278053.758679,4,3,-6.8359375,9.27734375,-19.53125,8.30078125,0.0,0
1586278053.7625852,4,3,-19.04296875,2.9296875,-27.83203125,-29.78515625,0.0,0
1586278053.7664914,4,3,-6.8359375,3.41796875,-21.484375,-20.99609375,0.0,0
1586278053.7703977,4,3,7.32421875,8.7890625,-14.16015625,12.6953125,0.0,0
1586278053.774304,4,3,25.390625,3.90625,-22.94921875,51.7578125,0.0,0
1586278053.7782102,4,3,2.44140625,-4.39453125,-20.01953125,23.92578125,0.0,0
1586278053.7821164,4,3,-24.90234375,-0.48828125,-7.8125,-7.32421875,0.0,0
1586278053.7860227,4,3,-26.85546875,9.765625,-10.25390625,-19.53125,0.0,0
1586278053.789929,4,3,-12.6953125,6.34765625,-11.23046875,-23.4375,0.0,0
1586278053.7938352,4,3,11.71875,4.8828125,-14.6484375,16.11328125,0.0,0
1586278053.7977414,4,3,-7.8125,2.9296875,-17.08984375,10.7421875,0.0,0
1586278053.8016477,4,3,-33.203125,-9.27734375,-17.578125,-41.9921875,0.0,0
1586278053.805554,4,3,-15.13671875,-5.859375,-20.99609375,-56.640625,0.0,0
1586278053.8094602,4,3,6.8359375,-4.8828125,-20.99609375,-16.6015625,0.0,0
1586278053.8133664,4,3,15.625,2.9296875,-14.6484375,21.484375,0.0,0
1586278053.8172727,4,3,4.39453125,11.23046875,-18.06640625,12.6953125,0.0,0
1586278053.821179,4,3,-10.25390625,3.90625,-28.3203125,-13.671875,0.0,0
1586278053.8250852,4,3,-5.859375,-2.9296875,-27.34375,-27.83203125,0.0,0
1586278053.8289914,4,3,5.37109375,-1.46484375,-25.390625,-3.41796875,0.0,0
1586278053.8328977,4,3,6.8359375,5.859375,-27.34375,34.1796875,0.0,0
1586278053.836804,4,3,-6.34765625,6.34765625,-17.578125,32.71484375,0.0,0
1586278053.8407102,4,3,-19.04296875,6.34765625,-1.953125,-4.39453125,0.0,0
1586278053.8446164,4,3,-24.90234375,8.30078125,-3.90625,-35.64453125,0.0,0
1586278053.8485227,4,3,-23.92578125,4.39453125,-14.16015625,-17.578125,0.0,0
1586278053.852429,4,3,1.953125,-2.9296875,-11.23046875,25.87890625,0.0,0
1586278053.8563352,4,3,0.48828125,0.0,-10.25390625,18.5546875,0.0,0
1586278053.8602414,4,3,-29.296875,4.8828125,-10.25390625,-28.3203125,0.0,0
1586278053.8641477,4,3,-36.62109375,-0.48828125,-12.20703125,-52.734375,0.0,0
1586278053.868054,4,3,-8.7890625,5.37109375,-10.25390625,-22.94921875,0.0,0
1586278053.8719602,4,3,10.25390625,3.90625,-5.859375,28.80859375,0.0,0
1586278053.8758664,4,3,-2.44140625,-0.48828125,-5.859375,42.48046875,0.0,0
1586278053.8797727,4,3,-13.18359375,3.41796875,-12.6953125,-2.44140625,0.0,0
1586278053.883679,4,3,-21.97265625,2.9296875,-19.04296875,-38.0859375,0.0,0
1586278053.8875852,4,3,-9.27734375,6.8359375,-2.44140625,-10.7421875,0.0,0
1586278053.8914914,4,3,1.953125,10.25390625,1.46484375,19.04296875,0.0,0
1586278053.8953977,4,3,0.48828125,7.32421875,-10.25390625,30.76171875,0.0,0
1586278053.899304,4,3,-17.578125,0.0,-14.16015625,15.13671875,0.0,0
1586278053.9032102,4,3,-36.62109375,-1.953125,-16.6015625,-30.2734375,0.0,0
1586278053.9071164,4,3,-21.484375,-4.39453125,-20.01953125,-38.57421875,0.0,0
1586278053.9110227,4,3,6.34765625,1.46484375,-17.08984375,8.7890625,0.0,0
1586278053.914929,4,3,10.25390625,-5.37109375,-19.04296875,40.52734375,0.0,0
1586278053.9188352,4,3,-8.7890625,-12.20703125,-20.01953125,5.37109375,0.0,0
1586278053.9227414,4,3,-22.94921875,8.30078125,-19.53125,-45.41015625,0.0,0
1586278053.9266477,4,3,-24.4140625,16.11328125,-17.578125,-47.36328125,0.0,0
1586278053.930554,4,3,-1.46484375,8.7890625,-8.7890625,19.53125,0.0,0
1586278053.9344602,4,3,5.37109375,6.34765625,-10.7421875,57.6171875,0.0,0
1586278053.9383664,4,3,-20.5078125,6.34765625,-12.6953125,14.16015625,0.0,0
1586278053.9422727,4,3,-40.0390625,-7.8125,-8.7890625,-32.2265625,0.0,0
1586278053.946179,4,3,-39.0625,-15.13671875,-18.06640625,-41.50390625,0.0,0
1586278053.9500852,4,3,-18.5546875,-11.23046875,-30.76171875,5.859375,0.0,0
1586278053.9539914,4,3,-1.46484375,-9.27734375,-26.3671875,47.36328125,0.0,0
1586278053.9578977,4,3,-5.859375,-6.34765625,-16.11328125,24.90234375,0.0,0
1586278053.961804,4,3,-18.06640625,-4.39453125,-13.671875,-18.5546875,0.0,0
1586278053.9657102,4,3,-18.06640625,3.41796875,-18.06640625,-31.73828125,0.0,0
1586278053.9696164,4,3,-6.34765625,6.34765625,-21.484375,-3.90625,0.0,0
1586278053.9735227,4,3,4.39453125,3.90625,-21.484375,32.2265625,0.0,0
1586278053.977429,4,3,-8.30078125,-7.8125,-25.390625,22.94921875,0.0,0
1586278053.9813352,4,3,-36.62109375,-16.11328125,-25.390625,-29.296875,0.0,0
1586278053.9852414,4,3,-44.43359375,-1.953125,-30.76171875,-56.15234375,0.0,0
1586278053.9891477,4,3,-24.90234375,9.765625,-31.73828125,-20.01953125,0.0,0
1586278053.993054,4,3,-9.765625,0.48828125,-29.78515625,21.97265625,0.0,0
1586278053.9969602,4,3,-23.4375,-8.30078125,-32.2265625,17.08984375,0.0,0
1586278054.0008664,4,3,-35.15625,-11.23046875,-21.484375,-18.06640625,0.0,0
1586278054.0047727,4,3,-33.69140625,-4.39453125,-18.5546875,-40.52734375,0.0,0
1586278054.008679,4,3,-26.3671875,2.9296875,-31.25,-22.4609375,0.0,0
1586278054.0125852,4,3,-6.34765625,-1.953125,-39.0625,16.6015625,0.0,0
1586278054.0164914,4,3,-8.7890625,-1.46484375,-25.87890625,13.671875,0.0,0
1586278054.0203977,4,3,-18.5546875,0.48828125,-17.578125,-13.18359375,0.0,0
1586278054.024304,4,3,-19.04296875,4.8828125,-25.87890625,-34.66796875,0.0,0
1586278054.0282102,4,3,-19.53125,-0.48828125,-27.83203125,-35.64453125,0.0,0
1586278054.0321164,4,3,-2.44140625,-7.8125,-34.66796875,15.625,0.0,0
1586278054.0360227,4,3,-2.9296875,-4.8828125,-36.1328125,23.92578125,0.0,0
1586278054.039929,4,3,-25.390625,-10.7421875,-29.296875,-33.69140625,0.0,0
1586278054.0438352,4,3,-36.1328125,-11.71875,-32.71484375,-71.2890625,0.0,0
1586278054.0477414,4,3,-26.3671875,-10.25390625,-34.1796875,-48.33984375,0.0,0
1586278054.0516477,4,3,-11.23046875,-7.8125,-36.1328125,-4.39453125,0.0,0
1586278054.055554,4,3,-11.71875,-7.32421875,-38.0859375,5.859375,0.0,0
1586278054.0594602,4,3,-31.25,-11.71875,-33.69140625,-25.87890625,0.0,0
1586278054.0633664,4,3,-39.0625,-7.32421875,-25.87890625,-47.36328125,0.0,0
1586278054.0672727,4,3,-24.90234375,-6.34765625,-29.296875,-23.4375,0.0,0
1586278054.071179,4,3,-12.6953125,1.46484375,-30.2734375,5.859375,0.0,0
1586278054.0750852,4,3,-5.37109375,7.32421875,-29.78515625,23.4375,0.0,0
1586278054.0789914,4,3,-14.6484375,0.0,-36.1328125,0.9765625,0.0,0
1586278054.0828977,4,3,-30.2734375,-3.90625,-36.62109375,-43.45703125,0.0,0
1586278054.086804,4,3,-24.4140625,0.0,-35.64453125,-39.55078125,0.0,0
1586278054.0907102,4,3,4.8828125,2.44140625,-32.2265625,7.32421875,0.0,0
1586278054.0946164,4,3,17.578125,-4.8828125,-26.85546875,38.57421875,0.0,0
1586278054.0985227,4,3,-4.39453125,-9.765625,-31.25,12.20703125,0.0,0
1586278054.102429,4,3,-30.76171875,-1.46484375,-30.76171875,-35.64453125,0.0,0
1586278054.1063352,4,3,-23.4375,0.48828125,-24.4140625,-26.85546875,0.0,0
1586278054.1102414,4,3,6.8359375,-11.71875,-30.2734375,21.484375,0.0,0
1586278054.1141477,4,3,12.20703125,-11.23046875,-33.203125,41.9921875,0.0,0
1586278054.118054,4,3,-8.7890625,-5.37109375,-35.64453125,-1.953125,0.0,0
1586278054.1219602,4,3,-26.3671875,-9.27734375,-35.64453125,-43.9453125,0.0,0
1586278054.1258664,4,3,-31.25,-4.39453125,-30.76171875,-41.015625,0.0,0
1586278054.1297727,4,3,-9.27734375,-2.9296875,-29.296875,4.39453125,0.0,0
1586278054.133679,4,3,2.44140625,-3.90625,-29.78515625,42.96875,0.0,0
1586278054.1375852,4,3,-9.27734375,-5.859375,-28.80859375,20.5078125,0.0,0
1586278054.1414914,4,3,-18.06640625,-4.39453125,-19.04296875,-22.4609375,0.0,0
1586278054.1453977,4,3,-17.578125,3.90625,-17.578125,-28.80859375,0.0,0
1586278054.149304,4,3,-4.39453125,5.37109375,-21.97265625,1.46484375,0.0,0
1586278054.1532102,4,3,12.6953125,4.39453125,-14.16015625,34.1796875,0.0,0
1586278054.1571164,4,3,17.578125,3.90625,-14.16015625,38.57421875,0.0,0
1586278054.1610227,4,3,-9.27734375,9.765625,-27.83203125,-5.859375,0.0,0
1586278054.164929,4,3,-29.78515625,13.18359375,-18.5546875,-54.19921875,0.0,0
1586278054.1688352,4,3,-20.01953125,1.46484375,-14.6484375,-39.0625,0.0,0
1586278054.1727414,4,3,-1.953125,0.9765625,-20.01953125,8.30078125,0.0,0
1586278054.1766477,4,3,-13.671875,7.32421875,-28.80859375,12.6953125,0.0,0
1586278054.180554,4,3,-39.55078125,-0.9765625,-26.3671875,-25.87890625,0.0,0
1586278054.1844602,4,3,-44.43359375,-4.39453125,-24.4140625,-52.734375,0.0,0
1586278054.1883664,4,3,-25.390625,0.48828125,-30.2734375,-32.71484375,0.0,0
1586278054.1922727,4,3,-6.8359375,-0.9765625,-25.87890625,13.671875,0.0,0
1586278054.196179,4,3,-8.7890625,1.953125,-21.97265625,22.4609375,0.0,0
1586278054.2000852,4,3,-18.06640625,-0.48828125,-21.484375,3.41796875,0.0,0
1586278054.2039914,4,3,-30.2734375,-1.953125,-25.87890625,-18.5546875,0.0,0
1586278054.2078977,4,3,-23.4375,1.46484375,-33.69140625,-28.3203125,0.0,0
1586278054.211804,4,3,5.37109375,1.46484375,-24.90234375,13.18359375,0.0,0
1586278054.2157102,4,3,15.13671875,-0.9765625,-20.99609375,49.8046875,0.0,0
1586278054.2196164,4,3,-13.18359375,0.48828125,-31.73828125,7.8125,0.0,0
1586278054.2235227,4,3,-31.73828125,11.23046875,-30.2734375,-43.45703125,0.0,0
1586278054.227429,4,3,-12.20703125,16.6015625,-25.87890625,-21.97265625,0.0,0
1586278054.2313352,4,3,16.6015625,4.39453125,-23.92578125,29.78515625,0.0,0
1586278054.2352414,4,3,20.99609375,-10.7421875,-17.578125,52.734375,0.0,0
1586278054.2391477,4,3,2.9296875,4.39453125,-16.6015625,19.53125,0.0,0
1586278054.243054,4,3,-10.7421875,14.6484375,-20.99609375,-17.08984375,0.0,0
1586278054.2469602,4,3,-5.859375,15.625,-19.53125,-7.8125,0.0,0
1586278054.2508664,4,3,10.25390625,16.6015625,-20.99609375,30.2734375,0.0,0
1586278054.2547727,4,3,12.20703125,12.6953125,-27.83203125,48.828125,0.0,0
1586278054.258679,4,3,-1.953125,8.7890625,-25.87890625,26.85546875,0.0,0
1586278054.2625852,4,3,-6.34765625,6.34765625,-24.90234375,-2.9296875,0.0,0
1586278054.2664914,4,3,-4.39453125,6.34765625,-29.78515625,-24.4140625,0.0,0
1586278054.2703977,4,3,1.46484375,3.41796875,-22.4609375,4.39453125,0.0,0
1586278054.274304,4,3,8.30078125,10.25390625,-15.13671875,51.26953125,0.0,0
1586278054.2782102,4,3,-4.8828125,8.30078125,-11.71875,31.73828125,0.0,0
1586278054.2821164,4,3,-24.4140625,2.44140625,-12.6953125,-20.99609375,0.0,0
1586278054.2860227,4,3,-18.5546875,4.39453125,-17.08984375,-24.90234375,0.0,0
1586278054.289929,4,3,8.30078125,-0.9765625,-18.06640625,14.16015625,0.0,0
1586278054.2938352,4,3,18.06640625,-5.37109375,-22.94921875,41.015625,0.0,0
1586278054.2977414,4,3,-6.8359375,1.46484375,-26.85546875,25.390625,0.0,0
1586278054.3016477,4,3,-26.85546875,7.8125,-20.5078125,-28.80859375,0.0,0
