timestamps,words,terms,TP9,AF7,AF8,TP10,Right AUX,Marker
1586278676.868054,60,1,-26.85546875,-16.6015625,2.9296875,-9.27734375,0.0,0
1586278676.8719602,60,1,-27.83203125,-20.01953125,-6.34765625,-22.4609375,0.0,0
1586278676.8758664,60,1,-24.4140625,-43.9453125,-10.7421875,-27.83203125,0.0,0
1586278676.8797727,60,1,-18.5546875,-40.52734375,-23.92578125,-19.53125,0.0,0
1586278676.883679,60,1,-15.13671875,-14.16015625,-23.92578125,-9.765625,0.0,0
1586278676.8875852,60,1,-14.16015625,-23.4375,-28.80859375,-14.6484375,0.0,0
1586278676.8914914,60,1,-24.90234375,-43.9453125,-45.41015625,-22.4609375,0.0,0
1586278676.8953977,60,1,-35.64453125,-48.33984375,-27.34375,-30.76171875,0.0,0
1586278676.899304,60,1,-28.80859375,-42.96875,3.90625,-22.94921875,0.0,0
1586278676.9032102,60,1,-21.484375,-20.5078125,9.765625,-10.7421875,0.0,0
1586278676.9071164,60,1,-21.97265625,-31.73828125,-5.37109375,-17.08984375,0.0,0
1586278676.9110227,60,1,-21.484375,-46.875,-9.27734375,-12.6953125,0.0,0
1586278676.914929,60,1,-22.4609375,-12.20703125,-14.6484375,-15.625,0.0,0
1586278676.9188352,60,1,-27.34375,-8.30078125,-20.99609375,-18.06640625,0.0,0
1586278676.9227414,60,1,-24.4140625,-31.73828125,-22.4609375,-9.27734375,0.0,0
1586278676.9266477,60,1,-17.08984375,-24.90234375,-20.99609375,-2.44140625,0.0,0
1586278676.930554,60,1,-20.5078125,-35.15625,-17.08984375,-2.44140625,0.0,0
1586278676.9344602,60,1,-28.80859375,-21.97265625,-22.4609375,-11.23046875,0.0,0
1586278676.9383664,60,1,-29.296875,-33.203125,-24.90234375,-16.6015625,0.0,0
1586278676.9422727,60,1,-30.2734375,-69.82421875,-39.0625,-14.16015625,0.0,0
1586278676.946179,60,1,-34.66796875,-52.734375,-40.52734375,-4.8828125,0.0,0
1586278676.9500852,60,1,-35.15625,-24.4140625,2.44140625,-12.6953125,0.0,0
1586278676.9539914,60,1,-29.296875,-3.90625,1.46484375,-27.34375,0.0,0
1586278676.9578977,60,1,-28.80859375,-17.08984375,-33.203125,-31.73828125,0.0,0
1586278676.961804,60,1,-30.2734375,-32.2265625,-44.43359375,-28.80859375,0.0,0
1586278676.9657102,60,1,-28.80859375,-23.4375,-32.2265625,-23.4375,0.0,0
1586278676.9696164,60,1,-24.90234375,-20.5078125,-16.6015625,-26.3671875,0.0,0
1586278676.9735227,60,1,-18.5546875,-38.57421875,-36.62109375,-38.57421875,0.0,0
1586278676.977429,60,1,-17.08984375,-36.1328125,-40.0390625,-36.1328125,0.0,0
1586278676.9813352,60,1,-11.23046875,-18.5546875,-5.859375,-22.4609375,0.0,0
1586278676.9852414,60,1,-1.46484375,-21.97265625,-7.32421875,-12.6953125,0.0,0
1586278676.9891477,60,1,-4.8828125,-30.2734375,-24.90234375,-12.20703125,0.0,0
1586278676.993054,60,1,-16.11328125,-30.2734375,-31.25,-24.4140625,0.0,0
1586278676.9969602,60,1,-21.97265625,-16.11328125,-11.23046875,-28.80859375,0.0,0
1586278677.0008664,60,1,-21.484375,1.953125,-31.25,-13.18359375,0.0,0
1586278677.0047727,60,1,-12.6953125,-18.06640625,-33.203125,3.41796875,0.0,0
1586278677.008679,60,1,-12.6953125,-22.4609375,-8.7890625,0.0,0.0,0
1586278677.0125852,60,1,-19.04296875,-5.859375,-16.6015625,-17.08984375,0.0,0
1586278677.0164914,60,1,-25.87890625,-10.25390625,-17.08984375,-22.4609375,0.0,0
1586278677.0203977,60,1,-24.4140625,-13.18359375,2.9296875,-8.7890625,0.0,0
1586278677.024304,60,1,-19.53125,-45.41015625,3.90625,-6.34765625,0.0,0
1586278677.0282102,60,1,-26.3671875,-65.4296875,-35.64453125,-24.90234375,0.0,0
1586278677.0321164,60,1,-27.34375,-31.73828125,-51.7578125,-31.73828125,0.0,0
1586278677.0360227,60,1,-20.99609375,1.46484375,-26.85546875,-18.06640625,0.0,0
1586278677.039929,60,1,-9.765625,22.94921875,-21.484375,-6.8359375,0.0,0
1586278677.0438352,60,1,-8.7890625,10.25390625,-19.04296875,-9.765625,0.0,0
1586278677.0477414,60,1,-14.6484375,-13.18359375,-17.08984375,-10.7421875,0.0,0
1586278677.0516477,60,1,-12.6953125,-13.18359375,-54.19921875,-23.4375,0.0,0
1586278677.055554,60,1,-14.16015625,-11.71875,-62.01171875,-37.59765625,0.0,0
1586278677.0594602,60,1,-9.765625,-29.78515625,-43.45703125,-18.06640625,0.0,0
1586278677.0633664,60,1,-6.8359375,-19.04296875,5.37109375,-6.8359375,0.0,0
1586278677.0672727,60,1,-14.6484375,-18.5546875,8.7890625,-11.23046875,0.0,0
1586278677.071179,60,1,-23.4375,-53.7109375,-35.15625,-16.6015625,0.0,0
1586278677.0750852,60,1,-30.76171875,-42.48046875,-39.0625,-36.1328125,0.0,0
1586278677.0789914,60,1,-30.2734375,-10.25390625,-34.1796875,-33.203125,0.0,0
1586278677.0828977,60,1,-23.92578125,2.9296875,-22.4609375,-15.625,0.0,0
1586278677.086804,60,1,-22.4609375,-1.953125,-28.3203125,-18.06640625,0.0,0
1586278677.0907102,60,1,-21.97265625,-9.27734375,-29.78515625,-26.85546875,0.0,0
1586278677.0946164,60,1,-20.5078125,-14.16015625,-24.4140625,-23.92578125,0.0,0
1586278677.0985227,60,1,-18.06640625,-14.16015625,-22.4609375,-21.97265625,0.0,0
1586278677.102429,60,1,-7.8125,-17.578125,-21.97265625,-15.13671875,0.0,0
1586278677.1063352,60,1,-4.8828125,-23.92578125,-11.23046875,-0.9765625,0.0,0
1586278677.1102414,60,1,-20.01953125,-21.484375,-19.53125,-10.25390625,0.0,0
1586278677.1141477,60,1,-30.76171875,-22.4609375,-46.875,-32.2265625,0.0,0
1586278677.118054,60,1,-28.80859375,-33.203125,-39.0625,-32.71484375,0.0,0
1586278677.1219602,60,1,-22.94921875,-27.83203125,-30.2734375,-11.23046875,0.0,0
1586278677.1258664,60,1,-24.90234375,-29.78515625,-34.66796875,-4.39453125,0.0,0
1586278677.1297727,60,1,-35.64453125,-39.55078125,-44.43359375,-21.484375,0.0,0
1586278677.133679,60,1,-32.2265625,-41.50390625,-45.41015625,-39.0625,0.0,0
1586278677.1375852,60,1,-20.5078125,-30.2734375,-23.4375,-40.52734375,0.0,0
1586278677.1414914,60,1,-15.13671875,-12.20703125,-2.44140625,-23.92578125,0.0,0
1586278677.1453977,60,1,-13.671875,-5.37109375,14.16015625,-15.625,0.0,0
1586278677.149304,60,1,-20.01953125,-13.671875,-17.08984375,-29.78515625,0.0,0
1586278677.1532102,60,1,-20.99609375,-30.76171875,-32.2265625,-37.109375,0.0,0
1586278677.1571164,60,1,-15.625,-36.62109375,-30.2734375,-33.69140625,0.0,0
1586278677.1610227,60,1,-17.08984375,-43.45703125,-47.36328125,-22.94921875,0.0,0
1586278677.164929,60,1,-20.5078125,-44.43359375,-40.0390625,-9.765625,0.0,0
1586278677.1688352,60,1,-17.578125,-20.99609375,-28.3203125,-8.30078125,0.0,0
1586278677.1727414,60,1,-33.203125,-15.13671875,-18.06640625,-28.3203125,0.0,0
1586278677.1766477,60,1,-39.0625,-16.6015625,-6.8359375,-42.48046875,0.0,0
1586278677.180554,60,1,-30.2734375,-20.5078125,-5.37109375,-30.2734375,0.0,0
1586278677.1844602,60,1,-28.3203125,-28.3203125,-5.37109375,-9.27734375,0.0,0
1586278677.1883664,60,1,-27.34375,-32.2265625,0.0,-5.859375,0.0,0
1586278677.1922727,60,1,-25.87890625,-29.78515625,12.6953125,-22.94921875,0.0,0
1586278677.196179,60,1,-23.92578125,-7.8125,-3.90625,-35.64453125,0.0,0
1586278677.2000852,60,1,-20.5078125,-17.578125,-21.97265625,-22.4609375,0.0,0
1586278677.2039914,60,1,-17.578125,-22.94921875,-27.83203125,-8.7890625,0.0,0
1586278677.2078977,60,1,-17.578125,-23.4375,0.0,-15.625,0.0,0
1586278677.211804,60,1,-22.94921875,-27.83203125,15.13671875,-21.97265625,0.0,0
1586278677.2157102,60,1,-26.3671875,-9.27734375,-2.44140625,-20.5078125,0.0,0
1586278677.2196164,60,1,-25.87890625,-13.18359375,6.8359375,-11.71875,0.0,0
1586278677.2235227,60,1,-20.01953125,-17.08984375,-16.6015625,-8.7890625,0.0,0
1586278677.227429,60,1,-12.6953125,-13.18359375,-31.73828125,-13.18359375,0.0,0
1586278677.2313352,60,1,-15.625,-17.578125,0.48828125,-19.53125,0.0,0
1586278677.2352414,60,1,-20.5078125,-21.484375,8.7890625,-27.83203125,0.0,0
1586278677.2391477,60,1,-21.97265625,-15.625,6.34765625,-27.83203125,0.0,0
1586278677.243054,60,1,-25.390625,-22.94921875,5.37109375,-17.08984375,0.0,0
1586278677.2469602,60,1,-23.92578125,-19.04296875,-4.8828125,-11.71875,0.0,0
1586278677.2508664,60,1,-25.87890625,-9.765625,-25.390625,-21.484375,0.0,0
1586278677.2547727,60,1,-22.94921875,-20.99609375,-38.0859375,-31.73828125,0.0,0
1586278677.258679,60,1,-15.625,-17.578125,-28.3203125,-26.85546875,0.0,0
1586278677.2625852,60,1,-17.08984375,-8.7890625,-22.94921875,-9.765625,0.0,0
1586278677.2664914,60,1,-14.16015625,-5.37109375,-24.90234375,-0.9765625,0.0,0
1586278677.2703977,60,1,-17.578125,-11.71875,-25.87890625,-17.08984375,0.0,0
1586278677.274304,60,1,-20.01953125,-32.2265625,-9.765625,-27.34375,0.0,0
1586278677.2782102,60,1,-16.6015625,-50.29296875,-4.8828125,-25.390625,0.0,0
1586278677.2821164,60,1,-7.8125,-20.01953125,-19.53125,-17.578125,0.0,0
1586278677.2860227,60,1,-2.9296875,5.859375,-13.671875,-7.8125,0.0,0
1586278677.289929,60,1,-19.53125,-11.23046875,-25.87890625,-19.53125,0.0,0
1586278677.2938352,60,1,-27.83203125,-20.5078125,-15.13671875,-30.2734375,0.0,0
1586278677.2977414,60,1,-17.578125,-2.9296875,-6.34765625,-17.578125,0.0,0
1586278677.3016477,60,1,-16.11328125,-1.46484375,-55.17578125,-6.8359375,0.0,0
1586278677.305554,60,1,-21.97265625,-36.1328125,-63.4765625,-5.37109375,0.0,0
1586278677.3094602,60,1,-20.01953125,-46.875,11.71875,-5.37109375,0.0,0
1586278677.3133664,60,1,-25.87890625,-18.06640625,20.99609375,-17.08984375,0.0,0
1586278677.3172727,60,1,-33.69140625,-12.6953125,-14.6484375,-21.97265625,0.0,0
1586278677.321179,60,1,-21.484375,-18.06640625,8.7890625,-3.41796875,0.0,0
1586278677.3250852,60,1,-13.671875,-2.44140625,23.92578125,0.9765625,0.0,0
1586278677.3289914,60,1,-24.90234375,-15.625,5.37109375,-12.20703125,0.0,0
1586278677.3328977,60,1,-30.2734375,-35.64453125,-13.18359375,-24.90234375,0.0,0
1586278677.336804,60,1,-35.15625,-37.59765625,0.0,-40.0390625,0.0,0
1586278677.3407102,60,1,-38.0859375,-54.19921875,-0.48828125,-39.55078125,0.0,0
1586278677.3446164,60,1,-24.90234375,-50.29296875,-13.18359375,-19.04296875,0.0,0
1586278677.3485227,60,1,-22.94921875,-19.04296875,-11.71875,-13.671875,0.0,0
1586278677.352429,60,1,-33.69140625,-11.71875,-32.2265625,-31.25,0.0,0
1586278677.3563352,60,1,-38.0859375,-12.20703125,-21.97265625,-37.109375,0.0,0
1586278677.3602414,60,1,-25.390625,-9.765625,-6.34765625,-19.04296875,0.0,0
1586278677.3641477,60,1,-11.71875,-12.6953125,-3.41796875,6.8359375,0.0,0
1586278677.368054,60,1,-14.16015625,-15.625,4.39453125,1.46484375,0.0,0
1586278677.3719602,60,1,-23.4375,-32.2265625,2.9296875,-22.4609375,0.0,0
1586278677.3758664,60,1,-23.4375,-21.484375,12.6953125,-29.296875,0.0,0
1586278677.3797727,60,1,-13.671875,-22.4609375,22.4609375,-11.71875,0.0,0
1586278677.383679,60,1,-13.671875,-62.98828125,7.32421875,3.41796875,0.0,0
1586278677.3875852,60,1,-23.92578125,-40.52734375,-30.2734375,-10.25390625,0.0,0
1586278677.3914914,60,1,-29.78515625,-12.6953125,-40.0390625,-29.296875,0.0,0
1586278677.3953977,60,1,-26.3671875,-5.37109375,-25.87890625,-30.76171875,0.0,0
1586278677.399304,60,1,-21.97265625,1.953125,-13.18359375,-23.92578125,0.0,0
1586278677.4032102,60,1,-19.53125,-5.37109375,1.46484375,-20.99609375,0.0,0
1586278677.4071164,60,1,-18.5546875,-22.94921875,-2.44140625,-7.32421875,0.0,0
1586278677.4110227,60,1,-17.578125,-16.6015625,-7.8125,-4.8828125,0.0,0
1586278677.414929,60,1,-23.92578125,0.48828125,1.953125,-31.25,0.0,0
1586278677.4188352,60,1,-24.90234375,-14.6484375,13.18359375,-33.69140625,0.0,0
1586278677.4227414,60,1,-23.4375,-41.9921875,-8.7890625,-19.04296875,0.0,0
1586278677.4266477,60,1,-22.94921875,-48.33984375,-23.92578125,-11.23046875,0.0,0
1586278677.430554,60,1,-22.94921875,-31.25,-18.06640625,-18.06640625,0.0,0
1586278677.4344602,60,1,-30.2734375,-32.71484375,-38.0859375,-33.203125,0.0,0
1586278677.4383664,60,1,-30.2734375,-35.15625,-40.0390625,-31.25,0.0,0
1586278677.4422727,60,1,-25.87890625,-1.46484375,-27.34375,-15.625,0.0,0
1586278677.446179,60,1,-21.97265625,4.8828125,-54.6875,-11.71875,0.0,0
1586278677.4500852,60,1,-22.4609375,-25.87890625,-41.50390625,-18.5546875,0.0,0
1586278677.4539914,60,1,-26.3671875,-33.203125,-5.37109375,-25.390625,0.0,0
1586278677.4578977,60,1,-29.296875,-21.484375,-22.94921875,-24.4140625,0.0,0
1586278677.461804,60,1,-18.06640625,-20.5078125,-25.87890625,-4.8828125,0.0,0
1586278677.4657102,60,1,-14.6484375,-15.13671875,-7.32421875,1.46484375,0.0,0
1586278677.4696164,60,1,-24.4140625,-16.11328125,4.8828125,-14.6484375,0.0,0
1586278677.4735227,60,1,-25.87890625,-45.8984375,-3.90625,-26.85546875,0.0,0
1586278677.477429,60,1,-31.25,-43.45703125,-30.2734375,-35.15625,0.0,0
1586278677.4813352,60,1,-29.78515625,-16.6015625,-23.92578125,-31.73828125,0.0,0
1586278677.4852414,60,1,-17.578125,-12.6953125,5.37109375,-10.7421875,0.0,0
1586278677.4891477,60,1,-21.97265625,-11.71875,-14.16015625,-7.32421875,0.0,0
1586278677.493054,60,1,-20.99609375,-16.6015625,-5.37109375,-33.203125,0.0,0
1586278677.4969602,60,1,-10.7421875,-16.11328125,9.27734375,-28.80859375,0.0,0
1586278677.5008664,60,1,-14.6484375,-9.27734375,-55.17578125,-10.25390625,0.0,0
1586278677.5047727,60,1,-16.6015625,-15.625,-42.96875,-7.8125,0.0,0
1586278677.508679,60,1,-18.5546875,-34.1796875,20.01953125,-5.37109375,0.0,0
1586278677.5125852,60,1,-24.90234375,-40.0390625,-11.71875,-18.5546875,0.0,0
1586278677.5164914,60,1,-20.99609375,-40.0390625,-38.57421875,-21.484375,0.0,0
1586278677.5203977,60,1,-14.16015625,-36.1328125,-4.39453125,-4.39453125,0.0,0
1586278677.524304,60,1,-9.27734375,-21.484375,7.32421875,8.7890625,0.0,0
1586278677.5282102,60,1,-10.25390625,-26.85546875,-6.34765625,5.859375,0.0,0
1586278677.5321164,60,1,-8.7890625,-20.99609375,-21.97265625,2.44140625,0.0,0
1586278677.5360227,60,1,-12.20703125,-13.671875,-21.97265625,-10.7421875,0.0,0
1586278677.539929,60,1,-17.578125,-21.97265625,-40.52734375,-23.4375,0.0,0
1586278677.5438352,60,1,-14.6484375,-26.85546875,-52.734375,-10.7421875,0.0,0
1586278677.5477414,60,1,-21.97265625,-31.73828125,-33.69140625,-9.765625,0.0,0
1586278677.5516477,60,1,-33.69140625,-17.578125,-23.92578125,-28.80859375,0.0,0
1586278677.555554,60,1,-33.203125,-27.83203125,-21.484375,-39.0625,0.0,0
1586278677.5594602,60,1,-22.4609375,-37.109375,-59.08203125,-22.4609375,0.0,0
1586278677.5633664,60,1,-15.625,-33.69140625,-62.98828125,-12.6953125,0.0,0
1586278677.5672727,60,1,-10.7421875,-31.25,-11.23046875,-7.32421875,0.0,0
1586278677.571179,60,1,-14.16015625,-22.4609375,-25.390625,-17.578125,0.0,0
1586278677.5750852,60,1,-21.97265625,-17.08984375,-29.296875,-33.203125,0.0,0
1586278677.5789914,60,1,-20.5078125,-24.90234375,-11.71875,-38.0859375,0.0,0
1586278677.5828977,60,1,-16.11328125,-26.3671875,-5.859375,-23.4375,0.0,0
1586278677.586804,60,1,-11.71875,-17.578125,-4.39453125,-10.7421875,0.0,0
1586278677.5907102,60,1,-20.99609375,-27.34375,-30.76171875,-18.06640625,0.0,0
1586278677.5946164,60,1,-26.3671875,-26.3671875,-38.57421875,-19.53125,0.0,0
1586278677.5985227,60,1,-14.6484375,-43.45703125,-20.5078125,-26.3671875,0.0,0
1586278677.602429,60,1,-12.20703125,-62.01171875,-26.3671875,-18.06640625,0.0,0
1586278677.6063352,60,1,-14.6484375,-42.48046875,-41.9921875,0.48828125,0.0,0
1586278677.6102414,60,1,-22.94921875,-26.85546875,-48.828125,-13.671875,0.0,0
1586278677.6141477,60,1,-25.87890625,-13.671875,-18.06640625,-28.80859375,0.0,0
1586278677.618054,60,1,-20.5078125,0.9765625,3.90625,-27.34375,0.0,0
1586278677.6219602,60,1,-11.23046875,-3.90625,12.6953125,-9.27734375,0.0,0
1586278677.6258664,60,1,-10.25390625,-26.3671875,11.23046875,-2.44140625,0.0,0
1586278677.6297727,60,1,-18.5546875,-32.71484375,-16.11328125,-10.7421875,0.0,0
1586278677.633679,60,1,-21.484375,-31.73828125,-39.0625,-36.1328125,0.0,0
1586278677.6375852,60,1,-22.94921875,-38.57421875,-50.78125,-43.9453125,0.0,0
1586278677.6414914,60,1,-20.5078125,-26.3671875,-39.0625,-24.4140625,0.0,0
1586278677.6453977,60,1,-10.7421875,-19.53125,-25.87890625,-16.6015625,0.0,0
1586278677.649304,60,1,-10.7421875,-25.390625,-18.06640625,-15.625,0.0,0
1586278677.6532102,60,1,-17.08984375,-23.4375,-20.99609375,-20.01953125,0.0,0
1586278677.6571164,60,1,-25.87890625,-17.08984375,-34.1796875,-29.78515625,0.0,0
1586278677.6610227,60,1,-26.3671875,-24.4140625,0.48828125,-21.97265625,0.0,0
1586278677.664929,60,1,-13.671875,-18.5546875,14.16015625,-4.39453125,0.0,0
1586278677.6688352,60,1,-8.7890625,-5.37109375,7.32421875,-4.39453125,0.0,0
1586278677.6727414,60,1,-15.625,-19.04296875,0.0,-19.04296875,0.0,0
1586278677.6766477,60,1,-26.85546875,-22.4609375,-42.48046875,-25.87890625,0.0,0
1586278677.680554,60,1,-25.390625,-26.85546875,-49.31640625,-21.97265625,0.0,0
1586278677.6844602,60,1,-18.5546875,-27.83203125,-28.80859375,-12.6953125,0.0,0
1586278677.6883664,60,1,-12.20703125,-17.578125,-20.01953125,-3.41796875,0.0,0
1586278677.6922727,60,1,-8.7890625,-23.4375,-19.04296875,-9.27734375,0.0,0
1586278677.696179,60,1,-10.25390625,-32.2265625,-28.80859375,-13.18359375,0.0,0
1586278677.7000852,60,1,-2.44140625,-13.671875,0.0,-13.671875,0.0,0
1586278677.7039914,60,1,8.30078125,3.41796875,10.25390625,-3.90625,0.0,0
1586278677.7078977,60,1,6.34765625,-15.625,-37.109375,14.16015625,0.0,0
1586278677.711804,60,1,-13.671875,-22.4609375,-40.52734375,0.48828125,0.0,0
1586278677.7157102,60,1,-37.109375,-24.4140625,-10.25390625,-24.90234375,0.0,0
1586278677.7196164,60,1,-41.9921875,-36.1328125,-37.109375,-28.80859375,0.0,0
1586278677.7235227,60,1,-46.38671875,-42.48046875,-62.01171875,-24.4140625,0.0,0
1586278677.727429,60,1,-59.08203125,-40.52734375,-11.23046875,-29.78515625,0.0,0
1586278677.7313352,60,1,-65.4296875,-38.57421875,12.6953125,-40.0390625,0.0,0
1586278677.7352414,60,1,-66.89453125,-48.828125,-3.41796875,-47.36328125,0.0,0
1586278677.7391477,60,1,-58.10546875,-49.8046875,4.8828125,-41.015625,0.0,0
1586278677.743054,60,1,-52.24609375,-25.87890625,27.83203125,-31.73828125,0.0,0
1586278677.7469602,60,1,-56.15234375,-10.7421875,14.6484375,-41.9921875,0.0,0
1586278677.7508664,60,1,-51.7578125,-39.55078125,-14.6484375,-49.8046875,0.0,0
1586278677.7547727,60,1,-49.31640625,-56.15234375,-9.765625,-50.29296875,0.0,0
1586278677.758679,60,1,-48.828125,-29.296875,-5.37109375,-43.9453125,0.0,0
1586278677.7625852,60,1,-40.52734375,-8.30078125,-17.578125,-36.62109375,0.0,0
1586278677.7664914,60,1,-39.0625,-35.15625,-9.765625,-21.97265625,0.0,0
1586278677.7703977,60,1,-43.45703125,-45.41015625,-25.87890625,-22.94921875,0.0,0
1586278677.774304,60,1,-51.7578125,-20.5078125,-33.203125,-42.48046875,0.0,0
1586278677.7782102,60,1,-53.7109375,-26.85546875,-37.109375,-48.33984375,0.0,0
1586278677.7821164,60,1,-46.875,-33.69140625,-42.48046875,-32.71484375,0.0,0
1586278677.7860227,60,1,-31.73828125,-37.109375,-26.3671875,-4.39453125,0.0,0
1586278677.789929,60,1,-25.390625,-37.109375,1.953125,-3.90625,0.0,0
1586278677.7938352,60,1,-25.87890625,-20.5078125,20.01953125,-29.296875,0.0,0
1586278677.7977414,60,1,-33.203125,-8.7890625,-15.625,-42.48046875,0.0,0
1586278677.8016477,60,1,-28.3203125,-25.87890625,-14.6484375,-18.5546875,0.0,0
1586278677.805554,60,1,-15.625,-35.15625,-7.8125,3.41796875,0.0,0
1586278677.8094602,60,1,-22.94921875,-24.90234375,-21.484375,-6.34765625,0.0,0
1586278677.8133664,60,1,-35.64453125,-33.203125,-14.16015625,-27.83203125,0.0,0
1586278677.8172727,60,1,-40.0390625,-34.66796875,-29.78515625,-37.109375,0.0,0
1586278677.821179,60,1,-38.0859375,-25.390625,-41.9921875,-30.76171875,0.0,0
1586278677.8250852,60,1,-38.57421875,-17.578125,-7.32421875,-19.53125,0.0,0
1586278677.8289914,60,1,-39.0625,-21.97265625,2.44140625,-18.06640625,0.0,0
1586278677.8328977,60,1,-41.015625,-27.83203125,-12.20703125,-31.73828125,0.0,0
1586278677.836804,60,1,-35.64453125,-25.87890625,-8.7890625,-42.48046875,0.0,0
1586278677.8407102,60,1,-23.4375,-38.57421875,-19.53125,-25.87890625,0.0,0
1586278677.8446164,60,1,-13.18359375,-37.59765625,-23.92578125,-2.9296875,0.0,0
1586278677.8485227,60,1,-16.6015625,-20.01953125,-25.390625,-5.37109375,0.0,0
1586278677.852429,60,1,-20.99609375,-26.3671875,-27.83203125,-20.01953125,0.0,0
1586278677.8563352,60,1,-22.4609375,-33.69140625,-19.53125,-33.69140625,0.0,0
1586278677.8602414,60,1,-23.92578125,-16.11328125,-40.52734375,-23.92578125,0.0,0
1586278677.8641477,60,1,-19.04296875,0.9765625,-24.4140625,-2.44140625,0.0,0
1586278677.868054,60,1,-10.7421875,6.34765625,3.90625,-9.765625,0.0,0
1586278677.8719602,60,1,-17.578125,-16.11328125,-22.4609375,-34.1796875,0.0,0
1586278677.8758664,60,1,-26.3671875,-39.0625,-28.80859375,-38.57421875,0.0,0
1586278677.8797727,60,1,-13.18359375,-15.13671875,-3.41796875,-24.4140625,0.0,0
1586278677.883679,60,1,-9.27734375,-7.32421875,-4.8828125,-6.34765625,0.0,0
1586278677.8875852,60,1,-16.6015625,-34.1796875,-35.64453125,1.46484375,0.0,0
1586278677.8914914,60,1,-14.6484375,-33.69140625,-28.80859375,-1.953125,0.0,0
1586278677.8953977,60,1,-18.5546875,-25.390625,-12.6953125,-4.8828125,0.0,0
1586278677.899304,60,1,-23.92578125,-21.97265625,4.39453125,0.9765625,0.0,0
1586278677.9032102,60,1,-18.5546875,-24.90234375,-1.953125,7.32421875,0.0,0
1586278677.9071164,60,1,-22.94921875,-35.15625,-20.01953125,0.0,0.0,0
1586278677.9110227,60,1,-33.69140625,-32.71484375,-8.30078125,-14.16015625,0.0,0
1586278677.914929,60,1,-29.296875,-31.73828125,-22.94921875,-29.296875,0.0,0
1586278677.9188352,60,1,-23.92578125,-33.69140625,-34.1796875,-26.85546875,0.0,0
1586278677.9227414,60,1,-21.484375,-27.34375,-17.578125,-8.7890625,0.0,0
1586278677.9266477,60,1,-20.5078125,-25.87890625,-18.06640625,-7.8125,0.0,0
1586278677.930554,60,1,-16.6015625,-26.3671875,-19.04296875,-15.13671875,0.0,0
1586278677.9344602,60,1,-22.94921875,-26.3671875,-10.25390625,-24.4140625,0.0,0
1586278677.9383664,60,1,-26.85546875,-12.6953125,0.0,-23.92578125,0.0,0
1586278677.9422727,60,1,-15.625,-13.18359375,8.30078125,-4.39453125,0.0,0
1586278677.946179,60,1,-14.6484375,-28.3203125,-0.48828125,8.7890625,0.0,0
1586278677.9500852,60,1,-21.484375,-27.83203125,-18.5546875,-9.765625,0.0,0
1586278677.9539914,60,1,-29.296875,-26.85546875,-50.78125,-29.78515625,0.0,0
1586278677.9578977,60,1,-26.85546875,-42.48046875,-53.22265625,-33.69140625,0.0,0
1586278677.961804,60,1,-13.18359375,-31.73828125,-41.015625,-24.90234375,0.0,0
1586278677.9657102,60,1,-8.7890625,-19.04296875,-39.55078125,-9.765625,0.0,0
1586278677.9696164,60,1,-12.20703125,-14.16015625,-15.625,-7.8125,0.0,0
1586278677.9735227,60,1,-20.99609375,2.44140625,-7.32421875,-17.578125,0.0,0
1586278677.977429,60,1,-24.90234375,-10.7421875,-15.625,-17.578125,0.0,0
1586278677.9813352,60,1,-22.94921875,-31.25,-18.5546875,-17.08984375,0.0,0
1586278677.9852414,60,1,-18.5546875,-16.11328125,-6.34765625,-13.671875,0.0,0
1586278677.9891477,60,1,-20.99609375,-33.69140625,7.32421875,-14.16015625,0.0,0
1586278677.993054,60,1,-31.73828125,-51.26953125,-4.8828125,-31.25,0.0,0
1586278677.9969602,60,1,-29.78515625,-25.390625,-5.37109375,-30.2734375,0.0,0
1586278678.0008664,60,1,-24.90234375,-20.99609375,-6.34765625,-16.11328125,0.0,0
1586278678.0047727,60,1,-21.97265625,-14.16015625,-31.73828125,-1.46484375,0.0,0
1586278678.008679,60,1,-17.08984375,2.9296875,-13.18359375,1.46484375,0.0,0
1586278678.0125852,60,1,-17.08984375,-4.39453125,-10.25390625,-16.11328125,0.0,0
1586278678.0164914,60,1,-21.484375,-14.6484375,-47.36328125,-27.34375,0.0,0
1586278678.0203977,60,1,-14.16015625,-20.01953125,-39.0625,-12.20703125,0.0,0
1586278678.024304,60,1,-0.9765625,-24.90234375,6.34765625,9.27734375,0.0,0
1586278678.0282102,60,1,-9.765625,-39.55078125,4.39453125,-3.90625,0.0,0
1586278678.0321164,60,1,-25.87890625,-27.83203125,-18.06640625,-30.2734375,0.0,0
1586278678.0360227,60,1,-22.4609375,-5.37109375,-19.04296875,-28.3203125,0.0,0
1586278678.039929,60,1,-25.390625,-1.46484375,-19.53125,-20.01953125,0.0,0
1586278678.0438352,60,1,-26.3671875,-4.8828125,-1.953125,-9.765625,0.0,0
1586278678.0477414,60,1,-17.08984375,-4.8828125,20.01953125,0.48828125,0.0,0
1586278678.0516477,60,1,-19.53125,-20.5078125,-17.578125,-7.32421875,0.0,0
1586278678.055554,60,1,-17.578125,-31.73828125,-41.9921875,-8.30078125,0.0,0
1586278678.0594602,60,1,-10.7421875,-18.06640625,-26.3671875,-5.859375,0.0,0
1586278678.0633664,60,1,-12.6953125,-20.99609375,-27.83203125,-10.7421875,0.0,0
1586278678.0672727,60,1,-14.6484375,-26.3671875,-18.06640625,-1.46484375,0.0,0
1586278678.071179,60,1,-17.08984375,-34.66796875,-40.52734375,-7.32421875,0.0,0
1586278678.0750852,60,1,-17.08984375,-17.08984375,-25.87890625,-24.4140625,0.0,0
1586278678.0789914,60,1,-16.11328125,-2.44140625,14.6484375,-22.4609375,0.0,0
1586278678.0828977,60,1,-14.6484375,-8.7890625,5.37109375,-3.41796875,0.0,0
1586278678.086804,60,1,-9.27734375,-4.39453125,-5.859375,4.39453125,0.0,0
1586278678.0907102,60,1,-11.71875,-15.13671875,2.9296875,-11.23046875,0.0,0
1586278678.0946164,60,1,-17.578125,-22.94921875,-11.23046875,-17.08984375,0.0,0
1586278678.0985227,60,1,-17.578125,-26.3671875,-11.71875,-17.08984375,0.0,0
1586278678.102429,60,1,-20.5078125,-26.85546875,-2.44140625,-20.01953125,0.0,0
1586278678.1063352,60,1,-27.34375,-27.83203125,-39.55078125,-22.94921875,0.0,0
1586278678.1102414,60,1,-29.296875,-33.203125,-46.38671875,-28.80859375,0.0,0
1586278678.1141477,60,1,-23.4375,-25.390625,-13.671875,-23.92578125,0.0,0
1586278678.118054,60,1,-9.27734375,-25.390625,-12.6953125,-6.8359375,0.0,0
1586278678.1219602,60,1,-0.9765625,-23.92578125,-1.46484375,-0.9765625,0.0,0
1586278678.1258664,60,1,0.9765625,-8.30078125,5.37109375,1.953125,0.0,0
1586278678.1297727,60,1,-10.7421875,-16.11328125,-15.625,-9.765625,0.0,0
1586278678.133679,60,1,-27.83203125,-33.203125,-28.80859375,-36.1328125,0.0,0
1586278678.1375852,60,1,-32.2265625,-28.80859375,-22.4609375,-37.59765625,0.0,0
1586278678.1414914,60,1,-27.34375,-24.4140625,-4.8828125,-23.92578125,0.0,0
1586278678.1453977,60,1,-21.97265625,-34.1796875,-24.4140625,-5.37109375,0.0,0
1586278678.149304,60,1,-23.4375,-29.78515625,-28.80859375,-9.27734375,0.0,0
1586278678.1532102,60,1,-24.4140625,-23.4375,-26.85546875,-28.80859375,0.0,0
1586278678.1571164,60,1,-25.87890625,-26.85546875,-24.4140625,-25.87890625,0.0,0
1586278678.1610227,60,1,-16.6015625,-31.25,-10.7421875,-2.44140625,0.0,0
1586278678.164929,60,1,-4.8828125,0.9765625,0.48828125,6.8359375,0.0,0
1586278678.1688352,60,1,-6.8359375,9.765625,-16.6015625,-6.34765625,0.0,0
1586278678.1727414,60,1,-16.11328125,-26.85546875,-42.48046875,-25.87890625,0.0,0
1586278678.1766477,60,1,-19.53125,-36.1328125,-20.99609375,-29.296875,0.0,0
1586278678.180554,60,1,-14.16015625,-28.3203125,-1.46484375,-14.6484375,0.0,0
1586278678.1844602,60,1,-7.8125,-27.83203125,-10.25390625,0.9765625,0.0,0
1586278678.1883664,60,1,-15.625,-20.5078125,-32.71484375,2.9296875,0.0,0
1586278678.1922727,60,1,-19.04296875,-15.13671875,-24.4140625,-11.71875,0.0,0
1586278678.196179,60,1,-16.11328125,-18.06640625,4.39453125,-22.4609375,0.0,0
1586278678.2000852,60,1,-18.06640625,-23.92578125,-22.4609375,-25.390625,0.0,0
1586278678.2039914,60,1,-7.32421875,-23.92578125,-45.41015625,-9.765625,0.0,0
1586278678.2078977,60,1,-13.671875,-20.5078125,-12.6953125,-12.20703125,0.0,0
1586278678.211804,60,1,-36.1328125,-22.4609375,-20.99609375,-30.2734375,0.0,0
1586278678.2157102,60,1,-41.015625,-40.52734375,-50.78125,-35.15625,0.0,0
1586278678.2196164,60,1,-36.62109375,-45.41015625,-51.7578125,-37.59765625,0.0,0
1586278678.2235227,60,1,-31.25,-22.94921875,-17.578125,-24.90234375,0.0,0
1586278678.227429,60,1,-20.99609375,-11.23046875,1.46484375,-13.18359375,0.0,0
1586278678.2313352,60,1,-20.5078125,-19.04296875,-0.48828125,-22.94921875,0.0,0
1586278678.2352414,60,1,-22.94921875,-21.97265625,-11.23046875,-27.83203125,0.0,0
1586278678.2391477,60,1,-16.6015625,-9.27734375,-27.83203125,-16.6015625,0.0,0
1586278678.243054,60,1,-8.30078125,-22.94921875,-48.33984375,0.0,0.0,0
1586278678.2469602,60,1,-4.39453125,-51.26953125,-60.546875,3.90625,0.0,0
1586278678.2508664,60,1,-12.6953125,-40.0390625,-53.7109375,-5.37109375,0.0,0
1586278678.2547727,60,1,-19.04296875,-8.30078125,-18.06640625,-21.484375,0.0,0
1586278678.258679,60,1,-10.25390625,-11.71875,-6.34765625,-18.5546875,0.0,0
1586278678.2625852,60,1,-9.765625,-18.06640625,-24.4140625,-2.9296875,0.0,0
1586278678.2664914,60,1,-10.25390625,-14.16015625,-12.6953125,-0.9765625,0.0,0
1586278678.2703977,60,1,-13.671875,-20.01953125,-20.5078125,-21.484375,0.0,0
1586278678.274304,60,1,-25.390625,-21.484375,-28.3203125,-29.78515625,0.0,0
1586278678.2782102,60,1,-19.04296875,-24.90234375,-19.53125,-23.92578125,0.0,0
1586278678.2821164,60,1,-12.6953125,-39.55078125,-24.4140625,-17.578125,0.0,0
1586278678.2860227,60,1,-15.625,-32.71484375,-26.3671875,-6.34765625,0.0,0
1586278678.289929,60,1,-18.5546875,-30.2734375,-32.71484375,-13.671875,0.0,0
1586278678.2938352,60,1,-24.90234375,-42.48046875,-24.4140625,-34.66796875,0.0,0
1586278678.2977414,60,1,-26.85546875,-41.015625,-21.484375,-31.25,0.0,0
1586278678.3016477,60,1,-24.90234375,-34.66796875,-59.08203125,-8.7890625,0.0,0
1586278678.305554,60,1,-25.87890625,-38.0859375,-36.62109375,-6.34765625,0.0,0
1586278678.3094602,60,1,-33.203125,-32.2265625,-16.11328125,-15.625,0.0,0
1586278678.3133664,60,1,-46.875,-35.15625,-54.6875,-27.34375,0.0,0
1586278678.3172727,60,1,-44.921875,-31.25,-35.64453125,-32.2265625,0.0,0
1586278678.321179,60,1,-32.71484375,-32.71484375,-26.3671875,-24.4140625,0.0,0
1586278678.3250852,60,1,-25.87890625,-38.0859375,-33.69140625,-13.18359375,0.0,0
1586278678.3289914,60,1,-18.06640625,-18.5546875,-17.578125,-6.8359375,0.0,0
1586278678.3328977,60,1,-14.16015625,-7.8125,-37.109375,-11.71875,0.0,0
1586278678.336804,60,1,-11.23046875,-14.6484375,-32.71484375,-7.32421875,0.0,0
1586278678.3407102,60,1,-4.39453125,-24.90234375,-10.7421875,5.859375,0.0,0
1586278678.3446164,60,1,-4.39453125,-16.11328125,-11.71875,11.71875,0.0,0
1586278678.3485227,60,1,-15.13671875,-28.80859375,-33.203125,1.46484375,0.0,0
1586278678.352429,60,1,-19.04296875,-31.73828125,-43.45703125,-12.20703125,0.0,0
1586278678.3563352,60,1,-23.92578125,-31.25,-31.73828125,-28.80859375,0.0,0
1586278678.3602414,60,1,-20.5078125,-60.546875,-15.13671875,-20.01953125,0.0,0
1586278678.3641477,60,1,-13.18359375,-57.12890625,-39.0625,-4.39453125,0.0,0
1586278678.368054,60,1,-15.13671875,-24.4140625,-70.80078125,-11.23046875,0.0,0
1586278678.3719602,60,1,-20.01953125,-19.53125,-25.390625,-20.01953125,0.0,0
1586278678.3758664,60,1,-22.94921875,-19.53125,-2.9296875,-18.06640625,0.0,0
1586278678.3797727,60,1,-11.71875,-5.859375,-23.4375,-4.8828125,0.0,0
1586278678.383679,60,1,-7.32421875,-21.97265625,-24.90234375,-1.46484375,0.0,0
1586278678.3875852,60,1,-6.8359375,-44.921875,-5.859375,-0.48828125,0.0,0
1586278678.3914914,60,1,-9.765625,-44.43359375,5.37109375,-4.8828125,0.0,0
1586278678.3953977,60,1,-16.6015625,-43.45703125,-22.94921875,-19.04296875,0.0,0
1586278678.399304,60,1,-15.13671875,-38.57421875,-53.22265625,-15.13671875,0.0,0
1586278678.4032102,60,1,-14.6484375,-38.0859375,-46.38671875,-2.44140625,0.0,0
1586278678.4071164,60,1,-13.671875,-34.66796875,-23.92578125,-0.48828125,0.0,0
1586278678.4110227,60,1,-28.80859375,-32.71484375,-24.90234375,-8.7890625,0.0,0
1586278678.414929,60,1,-39.0625,-26.85546875,-27.34375,-9.27734375,0.0,0
1586278678.4188352,60,1,-34.1796875,-16.11328125,-29.296875,-7.32421875,0.0,0
1586278678.4227414,60,1,-18.5546875,-25.87890625,-41.9921875,-3.41796875,0.0,0
1586278678.4266477,60,1,-4.8828125,-55.17578125,-28.80859375,-2.44140625,0.0,0
1586278678.430554,60,1,-10.7421875,-60.05859375,-24.90234375,-16.11328125,0.0,0
1586278678.4344602,60,1,-14.6484375,-29.78515625,-20.99609375,-32.2265625,0.0,0
1586278678.4383664,60,1,-13.18359375,-8.30078125,-20.5078125,-30.76171875,0.0,0
1586278678.4422727,60,1,-20.99609375,-11.71875,-15.13671875,-23.92578125,0.0,0
1586278678.446179,60,1,-28.80859375,-23.4375,-22.94921875,-26.3671875,0.0,0
1586278678.4500852,60,1,-33.69140625,-38.0859375,-56.15234375,-42.96875,0.0,0
1586278678.4539914,60,1,-33.203125,-31.25,-51.7578125,-55.17578125,0.0,0
1586278678.4578977,60,1,-22.94921875,-26.3671875,-42.96875,-40.52734375,0.0,0
1586278678.461804,60,1,-15.13671875,-39.0625,-28.3203125,-17.08984375,0.0,0
1586278678.4657102,60,1,-18.5546875,-30.2734375,-23.4375,-6.34765625,0.0,0
1586278678.4696164,60,1,-22.4609375,-30.2734375,-41.50390625,-5.859375,0.0,0
1586278678.4735227,60,1,-21.97265625,-44.43359375,-47.8515625,-20.5078125,0.0,0
1586278678.477429,60,1,-20.5078125,-31.25,-29.296875,-26.85546875,0.0,0
1586278678.4813352,60,1,-6.8359375,-21.484375,-6.8359375,-0.48828125,0.0,0
1586278678.4852414,60,1,-0.48828125,-33.69140625,-1.953125,12.20703125,0.0,0
1586278678.4891477,60,1,-9.27734375,-37.109375,-20.01953125,8.7890625,0.0,0
1586278678.493054,60,1,-21.484375,-28.80859375,-42.96875,-5.37109375,0.0,0
1586278678.4969602,60,1,-23.92578125,-23.4375,-72.265625,-14.6484375,0.0,0
1586278678.5008664,60,1,-22.4609375,-37.59765625,-51.26953125,-4.8828125,0.0,0
1586278678.5047727,60,1,-20.01953125,-40.52734375,-7.32421875,5.37109375,0.0,0
1586278678.508679,60,1,-28.80859375,-35.15625,-6.34765625,2.44140625,0.0,0
1586278678.5125852,60,1,-39.0625,-36.1328125,-25.87890625,-12.20703125,0.0,0
1586278678.5164914,60,1,-41.50390625,-43.9453125,-37.109375,-26.85546875,0.0,0
1586278678.5203977,60,1,-36.1328125,-40.52734375,-30.2734375,-18.06640625,0.0,0
1586278678.524304,60,1,-27.83203125,-37.59765625,-14.16015625,1.953125,0.0,0
1586278678.5282102,60,1,-24.4140625,-44.921875,-9.765625,-0.9765625,0.0,0
1586278678.5321164,60,1,-19.04296875,-27.83203125,-25.390625,-10.25390625,0.0,0
1586278678.5360227,60,1,-23.4375,-43.9453125,-45.8984375,-16.6015625,0.0,0
1586278678.539929,60,1,-20.5078125,-46.875,-49.8046875,-12.20703125,0.0,0
1586278678.5438352,60,1,-11.71875,-20.5078125,-50.78125,-6.34765625,0.0,0
1586278678.5477414,60,1,-4.8828125,-42.96875,-39.55078125,-3.90625,0.0,0
1586278678.5516477,60,1,0.9765625,-22.94921875,-30.2734375,-5.859375,0.0,0
1586278678.555554,60,1,-9.27734375,-0.9765625,-25.390625,-20.99609375,0.0,0
1586278678.5594602,60,1,-10.25390625,-17.08984375,-20.99609375,-17.578125,0.0,0
1586278678.5633664,60,1,0.9765625,2.44140625,-32.2265625,1.953125,0.0,0
1586278678.5672727,60,1,-0.9765625,-12.6953125,-19.53125,5.859375,0.0,0
1586278678.571179,60,1,-10.7421875,-28.80859375,-41.50390625,-10.7421875,0.0,0
1586278678.5750852,60,1,-12.20703125,-20.5078125,-62.5,-25.390625,0.0,0
1586278678.5789914,60,1,-11.23046875,-38.57421875,-24.4140625,-9.765625,0.0,0
1586278678.5828977,60,1,-11.71875,-24.90234375,-26.85546875,16.11328125,0.0,0
1586278678.586804,60,1,-11.23046875,-20.01953125,-49.31640625,13.18359375,0.0,0
1586278678.5907102,60,1,-16.11328125,-35.64453125,-42.48046875,-9.765625,0.0,0
1586278678.5946164,60,1,-26.3671875,-36.1328125,-19.53125,-21.97265625,0.0,0
1586278678.5985227,60,1,-28.80859375,-34.66796875,-1.46484375,-21.484375,0.0,0
1586278678.602429,60,1,-27.34375,-40.0390625,-12.20703125,-11.23046875,0.0,0
1586278678.6063352,60,1,-28.3203125,-40.0390625,-37.59765625,-5.37109375,0.0,0
1586278678.6102414,60,1,-33.203125,-34.1796875,-30.2734375,-14.6484375,0.0,0
1586278678.6141477,60,1,-30.76171875,-26.3671875,-16.11328125,-25.390625,0.0,0
1586278678.618054,60,1,-26.3671875,-16.11328125,-13.671875,-25.390625,0.0,0
1586278678.6219602,60,1,-17.08984375,-14.16015625,-13.671875,-7.32421875,0.0,0
1586278678.6258664,60,1,-9.765625,-25.390625,-16.11328125,7.8125,0.0,0
1586278678.6297727,60,1,-20.5078125,-39.0625,-33.69140625,-1.46484375,0.0,0
1586278678.633679,60,1,-33.69140625,-36.1328125,-39.0625,-20.01953125,0.0,0
1586278678.6375852,60,1,-32.71484375,-40.0390625,-41.015625,-27.83203125,0.0,0
1586278678.6414914,60,1,-19.53125,-26.85546875,-47.36328125,-18.06640625,0.0,0
1586278678.6453977,60,1,-9.27734375,-23.92578125,-29.78515625,-6.8359375,0.0,0
1586278678.649304,60,1,-9.765625,-56.640625,-16.6015625,-14.16015625,0.0,0
1586278678.6532102,60,1,-23.4375,-65.4296875,-60.05859375,-43.45703125,0.0,0
1586278678.6571164,60,1,-25.390625,-31.25,-84.9609375,-48.828125,0.0,0
1586278678.6610227,60,1,-15.625,-6.34765625,-34.1796875,-24.4140625,0.0,0
1586278678.664929,60,1,-8.7890625,-0.48828125,-5.37109375,-8.30078125,0.0,0
1586278678.6688352,60,1,-12.6953125,1.953125,0.0,-10.7421875,0.0,0
1586278678.6727414,60,1,-20.01953125,-19.53125,-13.18359375,-25.390625,0.0,0
1586278678.6766477,60,1,-14.16015625,-25.390625,-28.3203125,-30.2734375,0.0,0
1586278678.680554,60,1,-11.23046875,-20.5078125,-59.5703125,-19.04296875,0.0,0
1586278678.6844602,60,1,-17.08984375,-33.203125,-69.3359375,0.0,0.0,0
1586278678.6883664,60,1,-20.99609375,-36.1328125,-25.390625,8.30078125,0.0,0
1586278678.6922727,60,1,-39.0625,-29.296875,-38.57421875,-16.6015625,0.0,0
1586278678.696179,60,1,-54.6875,-25.87890625,-45.41015625,-38.57421875,0.0,0
1586278678.7000852,60,1,-52.734375,-35.15625,-1.953125,-31.25,0.0,0
1586278678.7039914,60,1,-49.8046875,-42.96875,8.7890625,-16.11328125,0.0,0
1586278678.7078977,60,1,-38.0859375,-41.9921875,2.44140625,-7.8125,0.0,0
1586278678.711804,60,1,-25.87890625,-38.57421875,9.765625,-25.390625,0.0,0
1586278678.7157102,60,1,-23.92578125,-12.20703125,-6.34765625,-45.41015625,0.0,0
1586278678.7196164,60,1,-22.94921875,8.30078125,-41.9921875,-44.43359375,0.0,0
1586278678.7235227,60,1,-22.4609375,0.0,-51.7578125,-36.1328125,0.0,0
1586278678.727429,60,1,-27.83203125,-27.83203125,-51.7578125,-35.64453125,0.0,0
1586278678.7313352,60,1,-22.4609375,-26.3671875,-80.078125,-32.71484375,0.0,0
1586278678.7352414,60,1,-15.13671875,-34.1796875,-43.9453125,-37.59765625,0.0,0
1586278678.7391477,60,1,-9.27734375,-40.52734375,-1.46484375,-41.015625,0.0,0
1586278678.743054,60,1,-6.34765625,-10.7421875,-22.94921875,-25.87890625,0.0,0
1586278678.7469602,60,1,-18.06640625,-9.27734375,-19.53125,-18.5546875,0.0,0
1586278678.7508664,60,1,-28.3203125,-18.5546875,-26.85546875,-30.2734375,0.0,0
1586278678.7547727,60,1,-28.3203125,-33.69140625,-35.64453125,-41.9921875,0.0,0
1586278678.758679,60,1,-27.83203125,-41.015625,-27.83203125,-41.50390625,0.0,0
1586278678.7625852,60,1,-24.4140625,-37.59765625,-28.3203125,-20.99609375,0.0,0
1586278678.7664914,60,1,-18.5546875,-37.59765625,-43.45703125,5.37109375,0.0,0
1586278678.7703977,60,1,-20.5078125,-28.80859375,-41.015625,-0.48828125,0.0,0
1586278678.774304,60,1,-29.296875,-28.80859375,-20.99609375,-25.390625,0.0,0
1586278678.7782102,60,1,-29.296875,-36.62109375,-27.83203125,-31.25,0.0,0
1586278678.7821164,60,1,-18.06640625,-27.34375,-21.484375,-8.7890625,0.0,0
1586278678.7860227,60,1,-11.71875,-34.1796875,-5.37109375,10.7421875,0.0,0
1586278678.789929,60,1,-26.3671875,-51.26953125,-14.16015625,4.8828125,0.0,0
1586278678.7938352,60,1,-38.57421875,-33.203125,-16.11328125,-10.25390625,0.0,0
1586278678.7977414,60,1,-34.1796875,-22.94921875,-31.73828125,-19.53125,0.0,0
1586278678.8016477,60,1,-25.87890625,-34.1796875,-35.15625,-10.7421875,0.0,0
1586278678.805554,60,1,-28.80859375,-55.17578125,-25.87890625,6.8359375,0.0,0
1586278678.8094602,60,1,-39.0625,-52.734375,-43.45703125,10.7421875,0.0,0
1586278678.8133664,60,1,-46.875,-35.64453125,-22.94921875,-12.20703125,0.0,0
1586278678.8172727,60,1,-45.41015625,-27.83203125,-5.37109375,-14.6484375,0.0,0
1586278678.821179,60,1,-35.15625,-41.50390625,-32.2265625,7.8125,0.0,0
1586278678.8250852,60,1,-36.62109375,-41.9921875,-14.16015625,6.8359375,0.0,0
1586278678.8289914,60,1,-40.52734375,-32.71484375,-0.48828125,-1.953125,0.0,0
1586278678.8328977,60,1,-39.0625,-31.25,-43.45703125,-14.6484375,0.0,0
1586278678.836804,60,1,-30.2734375,-27.83203125,-58.59375,-22.94921875,0.0,0
1586278678.8407102,60,1,-19.04296875,-40.0390625,-44.921875,-12.20703125,0.0,0
1586278678.8446164,60,1,-10.7421875,-46.875,-20.5078125,-0.9765625,0.0,0
1586278678.8485227,60,1,-4.8828125,-27.83203125,-5.859375,-5.37109375,0.0,0
1586278678.852429,60,1,1.46484375,-15.625,-19.04296875,-12.6953125,0.0,0
1586278678.8563352,60,1,0.48828125,-8.30078125,-29.78515625,-10.25390625,0.0,0
1586278678.8602414,60,1,1.46484375,-10.25390625,-39.0625,-8.30078125,0.0,0
1586278678.8641477,60,1,2.9296875,-18.5546875,-40.52734375,-11.23046875,0.0,0
1586278678.868054,60,1,-0.9765625,-36.62109375,-48.828125,-16.6015625,0.0,0
1586278678.8719602,60,1,-1.953125,-48.33984375,-31.25,-18.5546875,0.0,0
1586278678.8758664,60,1,-8.30078125,-21.97265625,-6.8359375,-26.85546875,0.0,0
1586278678.8797727,60,1,-8.30078125,-19.53125,-53.7109375,-25.87890625,0.0,0
1586278678.883679,60,1,0.48828125,-33.203125,-65.4296875,-4.39453125,0.0,0
1586278678.8875852,60,1,-11.23046875,-30.76171875,-25.87890625,0.48828125,0.0,0
1586278678.8914914,60,1,-20.5078125,-12.6953125,-25.87890625,-6.8359375,0.0,0
1586278678.8953977,60,1,-16.11328125,-14.6484375,-5.859375,-17.578125,0.0,0
1586278678.899304,60,1,-16.11328125,-29.296875,12.20703125,-13.18359375,0.0,0
1586278678.9032102,60,1,-15.625,-38.57421875,-10.25390625,8.7890625,0.0,0
1586278678.9071164,60,1,-17.08984375,-56.640625,-38.0859375,14.6484375,0.0,0
1586278678.9110227,60,1,-29.296875,-63.96484375,-29.78515625,-2.9296875,0.0,0
1586278678.914929,60,1,-40.0390625,-31.25,-0.48828125,-19.53125,0.0,0
1586278678.9188352,60,1,-34.66796875,-7.32421875,-15.625,-23.92578125,0.0,0
1586278678.9227414,60,1,-28.80859375,-30.2734375,-48.33984375,-12.6953125,0.0,0
1586278678.9266477,60,1,-25.87890625,-47.36328125,-45.8984375,1.953125,0.0,0
1586278678.930554,61,1,-32.2265625,-24.90234375,-37.59765625,-10.25390625,0.0,0
1586278678.9344602,61,1,-36.1328125,-8.7890625,-41.50390625,-25.87890625,0.0,0
1586278678.9383664,61,1,-33.203125,-35.15625,-15.625,-20.5078125,0.0,0
1586278678.9422727,61,1,-29.78515625,-58.10546875,-24.90234375,-2.44140625,0.0,0
1586278678.946179,61,1,-20.99609375,-42.96875,-7.32421875,9.765625,0.0,0
1586278678.9500852,61,1,-20.99609375,-24.90234375,28.80859375,2.9296875,0.0,0
1586278678.9539914,61,1,-32.2265625,-26.3671875,-3.41796875,-9.765625,0.0,0
1586278678.9578977,61,1,-35.64453125,-32.2265625,-20.99609375,-11.71875,0.0,0
1586278678.961804,61,1,-26.3671875,-27.34375,-22.94921875,-7.32421875,0.0,0
1586278678.9657102,61,1,-15.625,-7.32421875,-54.6875,1.46484375,0.0,0
1586278678.9696164,61,1,-13.18359375,-9.765625,-63.4765625,2.44140625,0.0,0
1586278678.9735227,61,1,-15.13671875,-28.80859375,-22.94921875,-8.30078125,0.0,0
1586278678.977429,61,1,-18.06640625,-38.0859375,-12.20703125,-18.06640625,0.0,0
1586278678.9813352,61,1,-14.6484375,-25.87890625,-28.80859375,-16.11328125,0.0,0
1586278678.9852414,61,1,-8.30078125,-10.7421875,-38.57421875,-13.18359375,0.0,0
1586278678.9891477,61,1,-10.7421875,-19.04296875,-23.4375,-13.671875,0.0,0
1586278678.993054,61,1,-13.18359375,-23.92578125,-7.32421875,-30.76171875,0.0,0
1586278678.9969602,61,1,-14.6484375,-20.5078125,-12.20703125,-45.8984375,0.0,0
1586278679.0008664,61,1,-12.6953125,-17.578125,-24.4140625,-33.69140625,0.0,0
1586278679.0047727,61,1,-11.23046875,-6.8359375,-40.52734375,-16.11328125,0.0,0
1586278679.008679,61,1,-19.04296875,-10.7421875,-48.33984375,-22.4609375,0.0,0
1586278679.0125852,61,1,-28.3203125,-26.3671875,-34.1796875,-39.55078125,0.0,0
1586278679.0164914,61,1,-22.94921875,-23.4375,-37.109375,-39.55078125,0.0,0
1586278679.0203977,61,1,-16.11328125,-44.43359375,-42.48046875,-32.2265625,0.0,0
1586278679.024304,61,1,-25.390625,-50.78125,-36.62109375,-18.06640625,0.0,0
1586278679.0282102,61,1,-35.64453125,-35.15625,-46.38671875,-14.6484375,0.0,0
1586278679.0321164,61,1,-36.62109375,-24.4140625,-46.875,-30.2734375,0.0,0
1586278679.0360227,61,1,-38.0859375,-25.390625,-32.71484375,-42.48046875,0.0,0
1586278679.039929,61,1,-41.9921875,-55.17578125,-24.4140625,-38.57421875,0.0,0
1586278679.0438352,61,1,-41.50390625,-46.875,-35.15625,-11.23046875,0.0,0
1586278679.0477414,61,1,-35.64453125,-14.16015625,-37.109375,3.41796875,0.0,0
1586278679.0516477,61,1,-25.87890625,-18.5546875,-30.2734375,-10.25390625,0.0,0
1586278679.055554,61,1,-23.4375,-25.390625,-2.9296875,-18.06640625,0.0,0
1586278679.0594602,61,1,-23.92578125,-27.34375,-15.625,-10.25390625,0.0,0
1586278679.0633664,61,1,-20.01953125,-35.15625,-53.7109375,-7.32421875,0.0,0
1586278679.0672727,61,1,-17.578125,-37.109375,-33.69140625,-2.9296875,0.0,0
1586278679.071179,61,1,-24.90234375,-33.69140625,-27.34375,-13.18359375,0.0,0
1586278679.0750852,61,1,-31.73828125,-31.25,-56.640625,-32.2265625,0.0,0
1586278679.0789914,61,1,-24.4140625,-37.109375,-54.19921875,-27.34375,0.0,0
1586278679.0828977,61,1,-16.11328125,-45.41015625,-27.34375,-12.6953125,0.0,0
1586278679.086804,61,1,-11.71875,-48.828125,-20.01953125,-9.27734375,0.0,0
1586278679.0907102,61,1,-10.7421875,-22.4609375,4.39453125,-20.01953125,0.0,0
1586278679.0946164,61,1,-16.6015625,5.37109375,2.9296875,-28.80859375,0.0,0
1586278679.0985227,61,1,-18.5546875,-5.37109375,-18.5546875,-27.34375,0.0,0
1586278679.102429,61,1,-16.11328125,-27.83203125,-42.48046875,-16.6015625,0.0,0
1586278679.1063352,61,1,-15.13671875,-41.9921875,-68.359375,-12.20703125,0.0,0
1586278679.1102414,61,1,-25.87890625,-38.0859375,-63.4765625,-31.73828125,0.0,0
1586278679.1141477,61,1,-31.25,-27.83203125,-63.4765625,-37.59765625,0.0,0
1586278679.118054,61,1,-27.34375,-21.484375,-45.41015625,-28.80859375,0.0,0
1586278679.1219602,61,1,-20.5078125,-25.87890625,-10.25390625,-21.97265625,0.0,0
1586278679.1258664,61,1,-11.23046875,-26.3671875,0.48828125,-13.18359375,0.0,0
1586278679.1297727,61,1,-13.18359375,-23.92578125,-0.48828125,-10.7421875,0.0,0
1586278679.133679,61,1,-22.4609375,-40.0390625,-17.578125,-28.80859375,0.0,0
1586278679.1375852,61,1,-19.04296875,-40.52734375,-29.296875,-27.34375,0.0,0
1586278679.1414914,61,1,-11.23046875,-0.9765625,-29.78515625,-0.9765625,0.0,0
1586278679.1453977,61,1,-10.7421875,-10.7421875,-22.4609375,-1.953125,0.0,0
1586278679.149304,61,1,-18.06640625,-54.6875,-43.9453125,-9.765625,0.0,0
1586278679.1532102,61,1,-28.3203125,-31.73828125,-61.5234375,-27.83203125,0.0,0
1586278679.1571164,61,1,-33.69140625,-2.9296875,-49.8046875,-39.55078125,0.0,0
1586278679.1610227,61,1,-33.203125,-7.8125,-38.0859375,-27.34375,0.0,0
1586278679.164929,61,1,-32.2265625,-26.3671875,-18.06640625,-6.8359375,0.0,0
1586278679.1688352,61,1,-29.296875,-31.25,-2.44140625,4.8828125,0.0,0
1586278679.1727414,61,1,-27.34375,-26.85546875,-3.41796875,-11.23046875,0.0,0
1586278679.1766477,61,1,-27.34375,-38.0859375,-14.6484375,-24.90234375,0.0,0
1586278679.180554,61,1,-18.5546875,-39.0625,-38.57421875,-16.6015625,0.0,0
1586278679.1844602,61,1,-4.8828125,-34.66796875,-47.8515625,-8.7890625,0.0,0
1586278679.1883664,61,1,-5.859375,-37.109375,-44.43359375,-12.6953125,0.0,0
1586278679.1922727,61,1,-12.20703125,-16.6015625,-49.8046875,-19.04296875,0.0,0
1586278679.196179,61,1,-21.97265625,1.46484375,-24.90234375,-28.80859375,0.0,0
1586278679.2000852,61,1,-22.94921875,-14.6484375,-13.18359375,-34.1796875,0.0,0
1586278679.2039914,61,1,-13.18359375,-25.87890625,-50.78125,-16.11328125,0.0,0
1586278679.2078977,61,1,-11.71875,-34.66796875,-51.26953125,0.48828125,0.0,0
1586278679.211804,61,1,-20.5078125,-46.875,-38.0859375,-15.625,0.0,0
1586278679.2157102,61,1,-22.94921875,-46.875,-24.4140625,-37.109375,0.0,0
1586278679.2196164,61,1,-25.390625,-38.0859375,-41.50390625,-42.48046875,0.0,0
1586278679.2235227,61,1,-22.94921875,-23.92578125,-35.15625,-16.6015625,0.0,0
1586278679.227429,61,1,-20.01953125,-34.66796875,-39.55078125,3.90625,0.0,0
1586278679.2313352,61,1,-30.76171875,-34.66796875,-64.94140625,-18.5546875,0.0,0
1586278679.2352414,61,1,-32.71484375,-20.99609375,-21.97265625,-41.015625,0.0,0
1586278679.2391477,61,1,-22.4609375,-36.1328125,-13.671875,-27.34375,0.0,0
1586278679.243054,61,1,-17.08984375,-32.71484375,-25.390625,-5.859375,0.0,0
1586278679.2469602,61,1,-31.25,-24.4140625,-21.97265625,-11.23046875,0.0,0
1586278679.2508664,61,1,-37.59765625,-42.96875,-27.83203125,-24.4140625,0.0,0
1586278679.2547727,61,1,-26.85546875,-42.48046875,-18.06640625,-30.76171875,0.0,0
1586278679.258679,61,1,-25.87890625,-27.34375,-7.8125,-33.69140625,0.0,0
1586278679.2625852,61,1,-28.3203125,-11.71875,-18.5546875,-17.08984375,0.0,0
1586278679.2664914,61,1,-26.85546875,-14.16015625,-25.87890625,-3.41796875,0.0,0
1586278679.2703977,61,1,-37.59765625,-37.109375,-21.97265625,-11.23046875,0.0,0
1586278679.274304,61,1,-51.26953125,-51.26953125,-24.4140625,-24.90234375,0.0,0
1586278679.2782102,61,1,-50.29296875,-64.453125,-21.484375,-22.4609375,0.0,0
1586278679.2821164,61,1,-36.62109375,-57.6171875,-23.4375,-1.953125,0.0,0
1586278679.2860227,61,1,-25.87890625,-40.52734375,-16.11328125,11.71875,0.0,0
1586278679.289929,61,1,-30.76171875,-33.203125,-7.32421875,-6.34765625,0.0,0
1586278679.2938352,61,1,-33.69140625,-39.55078125,-29.296875,-31.73828125,0.0,0
1586278679.2977414,61,1,-25.87890625,-36.1328125,-41.9921875,-23.92578125,0.0,0
1586278679.3016477,61,1,-19.04296875,-12.6953125,-29.296875,-11.23046875,0.0,0
1586278679.305554,61,1,-14.6484375,-3.90625,-33.69140625,-8.7890625,0.0,0
1586278679.3094602,61,1,-10.7421875,-30.76171875,-36.1328125,-11.71875,0.0,0
1586278679.3133664,61,1,-15.13671875,-44.921875,-35.15625,-24.4140625,0.0,0
1586278679.3172727,61,1,-14.6484375,-37.59765625,-22.4609375,-38.57421875,0.0,0
1586278679.321179,61,1,-2.9296875,-28.3203125,-26.85546875,-21.97265625,0.0,0
1586278679.3250852,61,1,-1.953125,-9.27734375,-36.1328125,-3.41796875,0.0,0
1586278679.3289914,61,1,-5.859375,-20.5078125,-29.78515625,-2.44140625,0.0,0
1586278679.3328977,61,1,-10.7421875,-13.18359375,-38.57421875,-19.04296875,0.0,0
1586278679.336804,61,1,-16.6015625,-4.8828125,-35.64453125,-37.59765625,0.0,0
1586278679.3407102,61,1,-12.6953125,-16.11328125,-33.203125,-27.83203125,0.0,0
1586278679.3446164,61,1,-6.8359375,-9.765625,-23.92578125,-7.32421875,0.0,0
1586278679.3485227,61,1,-10.7421875,-3.90625,-15.13671875,-9.765625,0.0,0
1586278679.352429,61,1,-23.4375,-24.90234375,-18.06640625,-23.4375,0.0,0
1586278679.3563352,61,1,-31.73828125,-45.41015625,-18.06640625,-30.76171875,0.0,0
1586278679.3602414,61,1,-26.3671875,-38.57421875,-27.83203125,-28.3203125,0.0,0
1586278679.3641477,61,1,-19.53125,-33.69140625,-52.734375,-14.16015625,0.0,0
1586278679.368054,61,1,-19.04296875,-47.36328125,-48.828125,-7.8125,0.0,0
1586278679.3719602,61,1,-14.6484375,-35.64453125,-40.52734375,-5.859375,0.0,0
1586278679.3758664,61,1,-14.6484375,-23.92578125,-49.31640625,-12.20703125,0.0,0
1586278679.3797727,61,1,-27.34375,-27.34375,-33.69140625,-18.06640625,0.0,0
1586278679.383679,61,1,-29.296875,-12.6953125,-3.90625,1.953125,0.0,0
1586278679.3875852,61,1,-22.94921875,-3.90625,12.6953125,16.6015625,0.0,0
1586278679.3914914,61,1,-34.1796875,-25.390625,-2.9296875,-1.953125,0.0,0
1586278679.3953977,61,1,-47.36328125,-55.17578125,-24.90234375,-27.34375,0.0,0
1586278679.399304,61,1,-41.015625,-41.015625,-25.390625,-23.92578125,0.0,0
1586278679.4032102,61,1,-22.94921875,-23.92578125,-2.44140625,-1.953125,0.0,0
1586278679.4071164,61,1,-18.06640625,-26.85546875,-21.97265625,3.41796875,0.0,0
1586278679.4110227,61,1,-24.90234375,-23.92578125,-35.64453125,-18.06640625,0.0,0
1586278679.414929,61,1,-23.4375,-21.484375,-41.9921875,-28.80859375,0.0,0
1586278679.4188352,61,1,-10.7421875,-26.3671875,-51.26953125,-19.04296875,0.0,0
1586278679.4227414,61,1,-0.9765625,-17.578125,-20.5078125,-1.46484375,0.0,0
1586278679.4266477,61,1,0.9765625,-3.90625,-16.11328125,7.32421875,0.0,0
1586278679.430554,61,1,0.0,-5.37109375,-17.08984375,-9.765625,0.0,0
1586278679.4344602,61,1,-3.41796875,-25.87890625,0.0,-23.92578125,0.0,0
1586278679.4383664,61,1,-16.11328125,-34.66796875,10.7421875,-29.78515625,0.0,0
1586278679.4422727,61,1,-20.01953125,-18.06640625,-39.0625,-19.04296875,0.0,0
1586278679.446179,61,1,-12.20703125,-26.3671875,-62.5,-7.32421875,0.0,0
1586278679.4500852,61,1,-12.6953125,-31.73828125,-13.18359375,-25.87890625,0.0,0
1586278679.4539914,61,1,-24.4140625,-22.94921875,-9.27734375,-50.78125,0.0,0
1586278679.4578977,61,1,-28.3203125,-31.25,-41.9921875,-48.33984375,0.0,0
1586278679.461804,61,1,-16.6015625,-32.71484375,-47.36328125,-16.11328125,0.0,0
1586278679.4657102,61,1,-8.30078125,-12.20703125,-26.85546875,5.37109375,0.0,0
1586278679.4696164,61,1,-16.11328125,-19.04296875,-8.7890625,-4.39453125,0.0,0
1586278679.4735227,61,1,-20.5078125,-32.71484375,-3.90625,-16.11328125,0.0,0
1586278679.477429,61,1,-7.8125,-31.25,-5.37109375,-6.8359375,0.0,0
1586278679.4813352,61,1,-6.34765625,-34.1796875,-15.625,7.8125,0.0,0
1586278679.4852414,61,1,-15.13671875,-22.94921875,-16.6015625,10.25390625,0.0,0
1586278679.4891477,61,1,-21.484375,-18.06640625,-22.4609375,3.90625,0.0,0
1586278679.493054,61,1,-24.4140625,-32.2265625,-36.62109375,-15.13671875,0.0,0
1586278679.4969602,61,1,-24.90234375,-35.15625,-24.90234375,-20.99609375,0.0,0
1586278679.5008664,61,1,-26.3671875,-26.85546875,-18.5546875,-13.671875,0.0,0
1586278679.5047727,61,1,-26.3671875,-30.2734375,-20.01953125,7.8125,0.0,0
1586278679.508679,61,1,-29.296875,-43.9453125,-16.11328125,19.04296875,0.0,0
1586278679.5125852,61,1,-30.2734375,-48.33984375,-15.625,5.859375,0.0,0
1586278679.5164914,61,1,-20.01953125,-35.64453125,-16.6015625,3.90625,0.0,0
1586278679.5203977,61,1,-14.16015625,-42.48046875,-48.33984375,5.859375,0.0,0
1586278679.524304,61,1,-8.7890625,-58.59375,-71.77734375,10.7421875,0.0,0
1586278679.5282102,61,1,-0.48828125,-47.36328125,-58.10546875,0.0,0.0,0
1586278679.5321164,61,1,-2.44140625,-19.04296875,-26.85546875,-18.5546875,0.0,0
1586278679.5360227,61,1,1.46484375,-11.23046875,-15.625,-21.97265625,0.0,0
1586278679.539929,61,1,6.8359375,-4.39453125,-13.18359375,-11.71875,0.0,0
1586278679.5438352,61,1,8.7890625,-5.859375,10.25390625,6.34765625,0.0,0
1586278679.5477414,61,1,9.27734375,-16.11328125,3.41796875,9.27734375,0.0,0
1586278679.5516477,61,1,-3.41796875,-17.08984375,-29.78515625,0.9765625,0.0,0
1586278679.555554,61,1,-15.13671875,-20.01953125,-36.62109375,-14.6484375,0.0,0
1586278679.5594602,61,1,-11.23046875,-26.3671875,-36.1328125,-14.16015625,0.0,0
1586278679.5633664,61,1,-11.23046875,-39.55078125,-41.015625,0.0,0.0,0
1586278679.5672727,61,1,-15.13671875,-28.80859375,-41.9921875,-3.41796875,0.0,0
1586278679.571179,61,1,-20.01953125,-21.97265625,-49.8046875,-20.01953125,0.0,0
1586278679.5750852,61,1,-24.4140625,-36.1328125,-30.2734375,-29.78515625,0.0,0
1586278679.5789914,61,1,-21.97265625,-35.15625,-7.32421875,-22.94921875,0.0,0
1586278679.5828977,61,1,-14.6484375,-38.0859375,-17.578125,-2.44140625,0.0,0
1586278679.586804,61,1,-9.765625,-43.9453125,-25.390625,10.25390625,0.0,0
1586278679.5907102,61,1,-17.578125,-23.4375,4.8828125,-11.23046875,0.0,0
1586278679.5946164,61,1,-24.4140625,-22.94921875,-6.8359375,-23.92578125,0.0,0
1586278679.5985227,61,1,-20.5078125,-42.96875,-50.78125,-7.32421875,0.0,0
1586278679.602429,61,1,-14.16015625,-29.78515625,-44.921875,8.30078125,0.0,0
1586278679.6063352,61,1,-15.13671875,-13.671875,-18.06640625,19.04296875,0.0,0
1586278679.6102414,61,1,-23.92578125,-27.83203125,-32.71484375,11.71875,0.0,0
1586278679.6141477,61,1,-23.4375,-45.8984375,-33.69140625,1.46484375,0.0,0
1586278679.618054,61,1,-21.97265625,-23.4375,-15.13671875,0.48828125,0.0,0
1586278679.6219602,61,1,-24.90234375,-26.85546875,-16.6015625,-2.44140625,0.0,0
1586278679.6258664,61,1,-17.578125,-48.33984375,-37.109375,0.9765625,0.0,0
1586278679.6297727,61,1,-17.08984375,-24.90234375,-55.17578125,-0.9765625,0.0,0
1586278679.633679,61,1,-20.99609375,-13.671875,-17.08984375,-22.94921875,0.0,0
1586278679.6375852,61,1,-18.06640625,-29.78515625,35.64453125,-38.57421875,0.0,0
1586278679.6414914,61,1,-15.13671875,-38.57421875,12.6953125,-28.3203125,0.0,0
1586278679.6453977,61,1,-0.48828125,-19.04296875,-30.2734375,-6.34765625,0.0,0
1586278679.649304,61,1,0.0,-1.953125,-19.53125,-5.37109375,0.0,0
1586278679.6532102,61,1,-12.20703125,-14.16015625,-20.5078125,-32.2265625,0.0,0
1586278679.6571164,61,1,-4.8828125,-23.92578125,-32.71484375,-29.296875,0.0,0
1586278679.6610227,61,1,6.34765625,-40.0390625,-27.83203125,-3.90625,0.0,0
1586278679.664929,61,1,2.44140625,-40.52734375,-28.80859375,4.39453125,0.0,0
1586278679.6688352,61,1,-2.9296875,-41.50390625,-34.66796875,9.765625,0.0,0
1586278679.6727414,61,1,-5.859375,-42.96875,-34.1796875,0.0,0.0,0
1586278679.6766477,61,1,-14.6484375,-16.11328125,-23.4375,-22.4609375,0.0,0
1586278679.680554,61,1,-18.06640625,-18.5546875,-11.23046875,-26.3671875,0.0,0
1586278679.6844602,61,1,-14.16015625,-24.90234375,-5.37109375,-13.18359375,0.0,0
1586278679.6883664,61,1,-17.08984375,-26.3671875,-36.1328125,-12.6953125,0.0,0
1586278679.6922727,61,1,-26.3671875,-28.80859375,-58.59375,-20.5078125,0.0,0
1586278679.696179,61,1,-26.3671875,-35.15625,-32.71484375,-28.3203125,0.0,0
1586278679.7000852,61,1,-18.06640625,-51.7578125,-22.94921875,-25.87890625,0.0,0
1586278679.7039914,61,1,-13.671875,-46.38671875,-17.08984375,-6.34765625,0.0,0
1586278679.7078977,61,1,-14.16015625,-28.80859375,-28.3203125,6.34765625,0.0,0
1586278679.711804,61,1,-20.5078125,-28.3203125,-44.921875,-5.859375,0.0,0
1586278679.7157102,61,1,-22.4609375,-26.3671875,-32.71484375,-18.06640625,0.0,0
1586278679.7196164,61,1,-22.4609375,-38.57421875,-41.015625,-21.484375,0.0,0
1586278679.7235227,61,1,-15.13671875,-44.43359375,-35.64453125,-7.32421875,0.0,0
1586278679.727429,61,1,-13.671875,-31.25,-13.671875,11.71875,0.0,0
1586278679.7313352,61,1,-28.3203125,-45.41015625,-6.34765625,6.8359375,0.0,0
1586278679.7352414,61,1,-34.1796875,-51.26953125,-10.7421875,-10.7421875,0.0,0
1586278679.7391477,61,1,-25.87890625,-32.2265625,-40.0390625,-13.18359375,0.0,0
1586278679.743054,61,1,-24.90234375,-32.71484375,-41.9921875,-2.44140625,0.0,0
1586278679.7469602,61,1,-26.3671875,-24.4140625,-16.6015625,0.0,0.0,0
1586278679.7508664,61,1,-29.78515625,-6.34765625,-21.97265625,-26.3671875,0.0,0
1586278679.7547727,61,1,-31.25,-11.71875,-16.6015625,-52.734375,0.0,0
1586278679.758679,61,1,-20.99609375,-18.06640625,-24.4140625,-48.33984375,0.0,0
1586278679.7625852,61,1,-16.11328125,-11.23046875,-31.73828125,-34.1796875,0.0,0
1586278679.7664914,61,1,-18.5546875,-15.625,-26.85546875,-30.76171875,0.0,0
1586278679.7703977,61,1,-25.87890625,-22.4609375,-23.4375,-39.0625,0.0,0
1586278679.774304,61,1,-31.73828125,-28.3203125,-15.13671875,-53.22265625,0.0,0
1586278679.7782102,61,1,-33.203125,-28.3203125,-29.296875,-47.36328125,0.0,0
1586278679.7821164,61,1,-22.4609375,-12.20703125,-43.45703125,-28.80859375,0.0,0
1586278679.7860227,61,1,-32.2265625,-8.7890625,-43.9453125,-28.80859375,0.0,0
1586278679.789929,61,1,-50.29296875,-27.34375,-47.8515625,-34.1796875,0.0,0
1586278679.7938352,61,1,-43.45703125,-32.2265625,-60.05859375,-40.52734375,0.0,0
1586278679.7977414,61,1,-37.109375,-14.6484375,-65.91796875,-34.66796875,0.0,0
1586278679.8016477,61,1,-20.99609375,-9.27734375,-37.109375,-26.3671875,0.0,0
1586278679.805554,61,1,-11.23046875,-24.90234375,-17.08984375,-16.11328125,0.0,0
1586278679.8094602,61,1,-19.53125,-29.296875,-32.71484375,-3.41796875,0.0,0
1586278679.8133664,61,1,-29.296875,-44.43359375,-21.484375,-19.53125,0.0,0
1586278679.8172727,61,1,-30.76171875,-43.45703125,-20.5078125,-40.52734375,0.0,0
1586278679.821179,61,1,-22.4609375,-25.390625,-36.62109375,-28.3203125,0.0,0
1586278679.8250852,61,1,-19.04296875,-26.3671875,-50.78125,-6.8359375,0.0,0
1586278679.8289914,61,1,-24.90234375,-30.2734375,-36.1328125,-10.7421875,0.0,0
1586278679.8328977,61,1,-31.73828125,-32.2265625,-13.671875,-34.1796875,0.0,0
1586278679.836804,61,1,-29.78515625,-16.6015625,-8.7890625,-38.57421875,0.0,0
1586278679.8407102,61,1,-21.97265625,-14.6484375,12.6953125,-27.83203125,0.0,0
1586278679.8446164,61,1,-24.4140625,-27.83203125,10.25390625,-13.671875,0.0,0
1586278679.8485227,61,1,-32.71484375,-42.96875,-28.80859375,-4.8828125,0.0,0
1586278679.852429,61,1,-30.2734375,-42.48046875,-41.50390625,-14.16015625,0.0,0
1586278679.8563352,61,1,-32.71484375,-33.69140625,-23.4375,-26.3671875,0.0,0
1586278679.8602414,61,1,-35.15625,-28.3203125,-33.69140625,-22.94921875,0.0,0
1586278679.8641477,61,1,-25.390625,-19.04296875,-48.33984375,-3.41796875,0.0,0
1586278679.868054,61,1,-23.92578125,-12.20703125,-29.78515625,6.34765625,0.0,0
1586278679.8719602,61,1,-31.25,-11.71875,-30.76171875,-2.9296875,0.0,0
1586278679.8758664,61,1,-37.109375,-23.92578125,-31.73828125,-18.5546875,0.0,0
1586278679.8797727,61,1,-28.3203125,-43.45703125,-15.625,-12.6953125,0.0,0
1586278679.883679,61,1,-11.71875,-54.6875,-20.01953125,7.32421875,0.0,0
1586278679.8875852,61,1,-2.9296875,-54.6875,12.20703125,9.765625,0.0,0
1586278679.8914914,61,1,-1.46484375,-21.484375,19.53125,-9.765625,0.0,0
1586278679.8953977,61,1,-23.4375,-9.27734375,-16.6015625,-28.3203125,0.0,0
1586278679.899304,61,1,-26.3671875,-11.71875,-42.96875,-10.7421875,0.0,0
1586278679.9032102,61,1,4.8828125,-2.9296875,-55.17578125,5.37109375,0.0,0
1586278679.9071164,61,1,7.8125,2.9296875,-49.31640625,0.48828125,0.0,0
1586278679.9110227,61,1,-9.765625,-5.859375,-42.48046875,-16.6015625,0.0,0
1586278679.914929,61,1,-19.53125,-14.6484375,-46.38671875,-40.52734375,0.0,0
1586278679.9188352,61,1,-15.625,-27.34375,-49.31640625,-33.69140625,0.0,0
1586278679.9227414,61,1,-13.18359375,-38.0859375,-15.625,-19.04296875,0.0,0
1586278679.9266477,61,1,-9.27734375,-20.99609375,3.90625,-13.18359375,0.0,0
1586278679.930554,61,1,-13.671875,-12.6953125,-21.484375,-21.97265625,0.0,0
1586278679.9344602,61,1,-19.53125,-17.578125,-18.06640625,-30.2734375,0.0,0
1586278679.9383664,61,1,-16.6015625,-15.625,15.625,-33.69140625,0.0,0
1586278679.9422727,61,1,-13.18359375,-26.3671875,-22.94921875,-26.3671875,0.0,0
1586278679.946179,61,1,-14.16015625,-20.01953125,-55.17578125,-2.9296875,0.0,0
1586278679.9500852,61,1,-23.4375,-11.71875,-34.1796875,-1.953125,0.0,0
1586278679.9539914,61,1,-27.83203125,-24.4140625,-18.5546875,-13.671875,0.0,0
1586278679.9578977,61,1,-20.99609375,-23.4375,-26.85546875,-16.11328125,0.0,0
1586278679.961804,61,1,-17.578125,-38.57421875,-44.43359375,-0.9765625,0.0,0
1586278679.9657102,61,1,-25.390625,-49.31640625,-23.92578125,14.6484375,0.0,0
1586278679.9696164,61,1,-22.4609375,-20.5078125,-7.8125,10.25390625,0.0,0
1586278679.9735227,61,1,-25.390625,-10.7421875,-30.2734375,-6.34765625,0.0,0
1586278679.977429,61,1,-31.73828125,-29.296875,-21.97265625,-21.484375,0.0,0
1586278679.9813352,61,1,-19.53125,-21.484375,-5.859375,-10.25390625,0.0,0
1586278679.9852414,61,1,-7.32421875,-22.4609375,-19.04296875,5.37109375,0.0,0
1586278679.9891477,61,1,-18.06640625,-50.29296875,-25.87890625,-1.953125,0.0,0
1586278679.993054,61,1,-37.109375,-29.296875,-32.2265625,-21.484375,0.0,0
1586278679.9969602,61,1,-27.83203125,-20.01953125,-34.1796875,-38.0859375,0.0,0
1586278680.0008664,61,1,-23.92578125,-48.828125,-44.921875,-38.57421875,0.0,0
1586278680.0047727,61,1,-38.57421875,-30.76171875,-37.109375,-27.83203125,0.0,0
1586278680.008679,61,1,-21.484375,-12.6953125,-0.9765625,-25.390625,0.0,0
1586278680.0125852,61,1,-12.6953125,-24.90234375,-9.27734375,-31.73828125,0.0,0
1586278680.0164914,61,1,-22.4609375,-25.390625,-23.4375,-40.0390625,0.0,0
1586278680.0203977,61,1,-16.11328125,-22.4609375,-29.78515625,-33.203125,0.0,0
1586278680.024304,61,1,-12.6953125,-22.4609375,-21.484375,-16.11328125,0.0,0
1586278680.0282102,61,1,-20.5078125,-28.3203125,-22.4609375,-15.13671875,0.0,0
1586278680.0321164,61,1,-14.16015625,-31.73828125,-36.1328125,-9.765625,0.0,0
1586278680.0360227,61,1,-19.53125,-32.2265625,-55.17578125,-8.30078125,0.0,0
1586278680.039929,61,1,-23.92578125,-41.50390625,-41.015625,-16.6015625,0.0,0
1586278680.0438352,61,1,-8.30078125,-46.875,-10.7421875,-0.48828125,0.0,0
1586278680.0477414,61,1,-4.8828125,-21.484375,-10.25390625,7.32421875,0.0,0
1586278680.0516477,61,1,-19.04296875,-3.90625,-23.4375,-2.44140625,0.0,0
1586278680.055554,61,1,-24.90234375,-7.32421875,-22.94921875,-7.8125,0.0,0
1586278680.0594602,61,1,-20.01953125,-17.578125,-12.20703125,-6.8359375,0.0,0
1586278680.0633664,61,1,-15.625,-38.57421875,-14.6484375,-5.37109375,0.0,0
1586278680.0672727,61,1,-11.23046875,-43.45703125,-36.62109375,0.9765625,0.0,0
1586278680.071179,61,1,-15.13671875,-21.97265625,-35.64453125,1.953125,0.0,0
1586278680.0750852,61,1,-20.99609375,-7.8125,-22.94921875,-13.671875,0.0,0
1586278680.0789914,61,1,-35.15625,-21.97265625,-12.20703125,-17.578125,0.0,0
1586278680.0828977,61,1,-39.55078125,-30.2734375,-26.3671875,-11.23046875,0.0,0
1586278680.086804,61,1,-19.53125,-45.41015625,-32.2265625,-14.16015625,0.0,0
1586278680.0907102,61,1,-25.390625,-53.22265625,-21.97265625,-26.3671875,0.0,0
1586278680.0946164,61,1,-38.0859375,-41.50390625,-35.15625,-41.9921875,0.0,0
1586278680.0985227,61,1,-31.25,-37.59765625,-30.2734375,-38.0859375,0.0,0
1586278680.102429,61,1,-27.34375,-25.390625,-24.90234375,-24.4140625,0.0,0
1586278680.1063352,61,1,-35.15625,-27.83203125,-25.87890625,-23.4375,0.0,0
1586278680.1102414,61,1,-37.59765625,-34.1796875,-31.73828125,-26.3671875,0.0,0
1586278680.1141477,61,1,-39.0625,-30.2734375,-33.203125,-33.69140625,0.0,0
1586278680.118054,61,1,-34.1796875,-29.296875,-31.25,-26.85546875,0.0,0
1586278680.1219602,61,1,-22.4609375,-19.04296875,-31.73828125,-4.39453125,0.0,0
1586278680.1258664,61,1,-16.11328125,-31.25,-33.203125,15.13671875,0.0,0
1586278680.1297727,61,1,-14.6484375,-38.57421875,-37.109375,6.8359375,0.0,0
1586278680.133679,61,1,-22.4609375,-20.99609375,-12.6953125,-18.06640625,0.0,0
1586278680.1375852,61,1,-21.484375,-29.296875,-39.55078125,-24.90234375,0.0,0
1586278680.1414914,61,1,-7.32421875,-30.2734375,-63.4765625,-6.34765625,0.0,0
1586278680.1453977,61,1,-1.46484375,-12.6953125,-22.4609375,4.8828125,0.0,0
1586278680.149304,61,1,-20.99609375,-7.32421875,-28.3203125,-11.71875,0.0,0
1586278680.1532102,61,1,-34.66796875,-20.01953125,-36.62109375,-30.76171875,0.0,0
1586278680.1571164,61,1,-9.765625,-12.6953125,-20.01953125,-32.71484375,0.0,0
1586278680.1610227,61,1,-3.41796875,-7.8125,-20.01953125,-20.5078125,0.0,0
1586278680.164929,61,1,-7.8125,-20.99609375,-43.45703125,-7.32421875,0.0,0
1586278680.1688352,61,1,-10.7421875,-31.25,-52.734375,-8.30078125,0.0,0
1586278680.1727414,61,1,-27.34375,-40.52734375,-51.26953125,-28.80859375,0.0,0
1586278680.1766477,61,1,-30.76171875,-34.1796875,-42.96875,-38.57421875,0.0,0
1586278680.180554,61,1,-21.484375,-27.34375,-22.4609375,-17.578125,0.0,0
1586278680.1844602,61,1,-14.6484375,-34.66796875,-20.01953125,5.37109375,0.0,0
1586278680.1883664,61,1,-19.04296875,-41.015625,-31.73828125,-4.8828125,0.0,0
1586278680.1922727,61,1,-29.78515625,-28.3203125,-34.1796875,-22.4609375,0.0,0
1586278680.196179,61,1,-25.87890625,-7.8125,-27.34375,-23.92578125,0.0,0
1586278680.2000852,61,1,-27.83203125,-19.53125,-23.4375,-14.16015625,0.0,0
1586278680.2039914,61,1,-29.78515625,-45.8984375,-15.13671875,-4.39453125,0.0,0
1586278680.2078977,61,1,-22.94921875,-35.64453125,-20.01953125,-10.25390625,0.0,0
1586278680.211804,61,1,-23.92578125,-15.13671875,-18.06640625,-15.625,0.0,0
1586278680.2157102,61,1,-31.25,-10.25390625,-11.71875,-26.3671875,0.0,0
1586278680.2196164,61,1,-29.296875,-22.94921875,-48.33984375,-32.71484375,0.0,0
1586278680.2235227,61,1,-38.57421875,-33.203125,-58.10546875,-21.484375,0.0,0
1586278680.227429,61,1,-44.43359375,-36.62109375,-53.7109375,-11.71875,0.0,0
1586278680.2313352,61,1,-29.296875,-42.96875,-54.6875,-20.99609375,0.0,0
1586278680.2352414,61,1,-23.92578125,-37.59765625,-12.6953125,-30.76171875,0.0,0
1586278680.2391477,61,1,-17.578125,-23.4375,-12.6953125,-29.78515625,0.0,0
1586278680.243054,61,1,-15.13671875,-28.3203125,-31.25,-14.6484375,0.0,0
1586278680.2469602,61,1,-10.7421875,-41.9921875,-12.6953125,-2.9296875,0.0,0
1586278680.2508664,61,1,-13.18359375,-22.94921875,-18.5546875,-9.765625,0.0,0
1586278680.2547727,61,1,-22.4609375,-17.08984375,-28.80859375,-16.11328125,0.0,0
1586278680.258679,61,1,-20.01953125,-32.71484375,-35.64453125,-16.11328125,0.0,0
1586278680.2625852,61,1,-12.6953125,-36.62109375,-38.57421875,-7.8125,0.0,0
1586278680.2664914,61,1,-20.01953125,-29.296875,-33.69140625,-2.9296875,0.0,0
1586278680.2703977,61,1,-23.92578125,-24.90234375,-12.6953125,-11.23046875,0.0,0
1586278680.274304,61,1,-29.78515625,-22.94921875,-28.3203125,-21.484375,0.0,0
1586278680.2782102,61,1,-31.73828125,-24.90234375,-55.6640625,-29.78515625,0.0,0
1586278680.2821164,61,1,-21.97265625,-38.0859375,-49.8046875,-22.4609375,0.0,0
1586278680.2860227,61,1,-30.2734375,-42.48046875,-2.9296875,-5.37109375,0.0,0
1586278680.289929,61,1,-30.2734375,-25.390625,9.27734375,-14.16015625,0.0,0
1586278680.2938352,61,1,-18.5546875,-13.18359375,-15.625,-36.1328125,0.0,0
1586278680.2977414,61,1,-23.92578125,-22.94921875,-12.6953125,-41.015625,0.0,0
1586278680.3016477,61,1,-25.390625,-44.43359375,-5.859375,-31.25,0.0,0
1586278680.305554,61,1,-21.484375,-42.48046875,-36.1328125,-8.7890625,0.0,0
1586278680.3094602,61,1,-23.4375,-27.83203125,-50.29296875,5.37109375,0.0,0
1586278680.3133664,61,1,-28.3203125,-30.2734375,-12.20703125,-7.8125,0.0,0
1586278680.3172727,61,1,-23.4375,-39.55078125,-22.94921875,-19.04296875,0.0,0
1586278680.321179,61,1,-14.16015625,-32.71484375,-49.31640625,-2.44140625,0.0,0
1586278680.3250852,61,1,-12.20703125,-20.5078125,-36.1328125,11.23046875,0.0,0
1586278680.3289914,61,1,-16.11328125,-18.5546875,-19.04296875,-6.8359375,0.0,0
1586278680.3328977,61,1,-23.92578125,-17.578125,-11.71875,-31.73828125,0.0,0
1586278680.336804,61,1,-32.2265625,-13.671875,-22.4609375,-40.0390625,0.0,0
1586278680.3407102,61,1,-41.9921875,-14.6484375,-19.53125,-24.90234375,0.0,0
1586278680.3446164,61,1,-32.2265625,-28.80859375,-34.66796875,-20.01953125,0.0,0
1586278680.3485227,61,1,0.9765625,-42.96875,-33.203125,-30.2734375,0.0,0
1586278680.352429,61,1,4.8828125,-29.78515625,-10.25390625,-40.0390625,0.0,0
1586278680.3563352,61,1,-5.37109375,-15.13671875,-17.578125,-43.45703125,0.0,0
1586278680.3602414,61,1,-4.39453125,-13.671875,-38.0859375,-31.25,0.0,0
1586278680.3641477,61,1,2.44140625,-18.06640625,-55.6640625,-11.23046875,0.0,0
1586278680.368054,61,1,-6.8359375,-21.484375,-41.9921875,-7.8125,0.0,0
1586278680.3719602,61,1,-14.16015625,-21.97265625,-16.11328125,-21.97265625,0.0,0
1586278680.3758664,61,1,-2.44140625,-31.73828125,-40.0390625,-17.578125,0.0,0
1586278680.3797727,61,1,1.953125,-30.76171875,-44.43359375,-11.71875,0.0,0
1586278680.383679,61,1,-2.9296875,-30.76171875,-3.41796875,0.48828125,0.0,0
1586278680.3875852,61,1,-14.6484375,-34.66796875,-5.37109375,11.71875,0.0,0
1586278680.3914914,61,1,-24.4140625,-32.2265625,-31.73828125,-8.7890625,0.0,0
1586278680.3953977,61,1,-26.85546875,-25.87890625,-52.734375,-28.80859375,0.0,0
1586278680.399304,61,1,-24.4140625,-30.2734375,-18.5546875,-20.01953125,0.0,0
1586278680.4032102,61,1,-14.16015625,-29.296875,-9.27734375,1.46484375,0.0,0
1586278680.4071164,61,1,-29.296875,-21.484375,-47.36328125,2.44140625,0.0,0
1586278680.4110227,61,1,-26.3671875,-16.11328125,-64.453125,-9.765625,0.0,0
1586278680.414929,61,1,-12.6953125,-38.0859375,-51.7578125,-19.04296875,0.0,0
1586278680.4188352,61,1,-26.3671875,-46.875,-21.97265625,-18.5546875,0.0,0
1586278680.4227414,61,1,-17.578125,-17.08984375,-50.29296875,-2.44140625,0.0,0
1586278680.4266477,61,1,-15.625,-9.765625,-58.59375,-4.39453125,0.0,0
1586278680.430554,61,1,-31.25,-27.34375,-28.3203125,-20.99609375,0.0,0
1586278680.4344602,61,1,-30.76171875,-33.203125,-34.66796875,-32.2265625,0.0,0
1586278680.4383664,61,1,-21.97265625,-33.69140625,-49.31640625,-35.15625,0.0,0
1586278680.4422727,61,1,-18.06640625,-20.99609375,-25.87890625,-11.71875,0.0,0
1586278680.446179,61,1,-4.8828125,-6.34765625,10.25390625,4.8828125,0.0,0
1586278680.4500852,61,1,-13.18359375,-17.578125,1.46484375,-14.6484375,0.0,0
1586278680.4539914,61,1,-29.78515625,-19.04296875,-36.1328125,-39.55078125,0.0,0
1586278680.4578977,61,1,-30.76171875,-26.85546875,-61.03515625,-39.55078125,0.0,0
1586278680.461804,61,1,-18.5546875,-39.55078125,-51.26953125,-21.97265625,0.0,0
1586278680.4657102,61,1,-15.13671875,-38.57421875,-62.01171875,-12.6953125,0.0,0
1586278680.4696164,61,1,-12.20703125,-33.203125,-50.29296875,-12.6953125,0.0,0
1586278680.4735227,61,1,-24.4140625,-43.45703125,-45.8984375,-21.484375,0.0,0
1586278680.477429,61,1,-25.390625,-41.9921875,-47.36328125,-27.34375,0.0,0
1586278680.4813352,61,1,-5.859375,-22.4609375,-13.18359375,-17.08984375,0.0,0
1586278680.4852414,61,1,-7.8125,-14.6484375,-30.76171875,-1.46484375,0.0,0
1586278680.4891477,61,1,-17.578125,-12.20703125,-21.97265625,-3.41796875,0.0,0
1586278680.493054,61,1,-20.5078125,-13.18359375,13.18359375,-12.20703125,0.0,0
1586278680.4969602,61,1,-24.4140625,-12.6953125,-8.30078125,-20.01953125,0.0,0
1586278680.5008664,61,1,-23.4375,-20.99609375,-16.11328125,-11.71875,0.0,0
1586278680.5047727,61,1,-20.01953125,-29.296875,-23.4375,-0.9765625,0.0,0
1586278680.508679,61,1,-31.73828125,-34.1796875,-49.8046875,-7.32421875,0.0,0
1586278680.5125852,61,1,-41.9921875,-31.73828125,-72.265625,-28.3203125,0.0,0
1586278680.5164914,61,1,-53.22265625,-29.296875,-82.03125,-37.109375,0.0,0
1586278680.5203977,61,1,-41.015625,-31.25,-37.109375,-20.5078125,0.0,0
1586278680.524304,61,1,-21.97265625,-33.69140625,-28.3203125,-8.30078125,0.0,0
1586278680.5282102,61,1,-25.390625,-30.76171875,-63.4765625,-8.30078125,0.0,0
1586278680.5321164,61,1,-36.1328125,-36.62109375,-43.45703125,-22.4609375,0.0,0
1586278680.5360227,61,1,-38.57421875,-39.0625,9.765625,-33.69140625,0.0,0
1586278680.539929,61,1,-32.2265625,-30.76171875,9.27734375,-28.3203125,0.0,0
1586278680.5438352,61,1,-9.765625,-36.62109375,-24.4140625,-16.11328125,0.0,0
1586278680.5477414,61,1,-5.859375,-32.71484375,-24.4140625,-10.7421875,0.0,0
1586278680.5516477,61,1,-20.01953125,-14.16015625,-29.78515625,-33.203125,0.0,0
1586278680.555554,61,1,-25.390625,-16.6015625,-44.921875,-49.31640625,0.0,0
1586278680.5594602,61,1,-19.53125,-46.38671875,-34.66796875,-28.80859375,0.0,0
1586278680.5633664,61,1,-15.625,-52.24609375,-27.34375,-3.90625,0.0,0
1586278680.5672727,61,1,-10.25390625,-30.2734375,-29.78515625,7.32421875,0.0,0
1586278680.571179,61,1,-13.671875,-37.59765625,-23.92578125,-4.8828125,0.0,0
1586278680.5750852,61,1,-25.87890625,-53.22265625,-25.390625,-25.87890625,0.0,0
1586278680.5789914,61,1,-33.203125,-50.29296875,-41.50390625,-28.3203125,0.0,0
1586278680.5828977,61,1,-31.73828125,-43.45703125,-29.78515625,-13.18359375,0.0,0
1586278680.586804,61,1,-26.85546875,-25.87890625,-9.27734375,-13.18359375,0.0,0
1586278680.5907102,61,1,-31.73828125,-16.6015625,-17.578125,-26.3671875,0.0,0
1586278680.5946164,61,1,-28.3203125,-16.11328125,-25.390625,-26.3671875,0.0,0
1586278680.5985227,61,1,-25.390625,-25.87890625,-35.15625,-19.04296875,0.0,0
1586278680.602429,61,1,-27.83203125,-45.41015625,-48.828125,-2.9296875,0.0,0
1586278680.6063352,61,1,-20.99609375,-42.96875,-54.19921875,8.30078125,0.0,0
1586278680.6102414,61,1,-24.90234375,-28.80859375,-33.69140625,-16.6015625,0.0,0
1586278680.6141477,61,1,-27.34375,-29.78515625,-22.4609375,-32.71484375,0.0,0
1586278680.618054,61,1,-27.83203125,-37.109375,-29.296875,-31.73828125,0.0,0
1586278680.6219602,61,1,-22.94921875,-32.2265625,-46.875,-19.53125,0.0,0
1586278680.6258664,61,1,-12.6953125,-30.76171875,-25.87890625,-14.6484375,0.0,0
1586278680.6297727,61,1,-15.625,-42.96875,-4.39453125,-25.390625,0.0,0
1586278680.633679,61,1,-27.83203125,-45.41015625,-42.96875,-39.55078125,0.0,0
1586278680.6375852,61,1,-21.97265625,-30.76171875,-38.57421875,-45.41015625,0.0,0
1586278680.6414914,61,1,-5.859375,-18.5546875,-26.3671875,-26.85546875,0.0,0
1586278680.6453977,61,1,-0.9765625,-11.23046875,-36.62109375,-1.953125,0.0,0
1586278680.649304,61,1,-19.53125,-14.6484375,-28.80859375,0.9765625,0.0,0
1586278680.6532102,61,1,-25.87890625,-35.64453125,-30.76171875,-15.13671875,0.0,0
1586278680.6571164,61,1,-5.37109375,-32.71484375,-40.52734375,-31.25,0.0,0
1586278680.6610227,61,1,-3.41796875,-21.97265625,-32.2265625,-20.99609375,0.0,0
1586278680.664929,61,1,-2.44140625,-17.578125,-35.15625,-5.859375,0.0,0
1586278680.6688352,61,1,-5.37109375,-25.390625,-37.59765625,-18.06640625,0.0,0
1586278680.6727414,61,1,-8.7890625,-26.85546875,-21.484375,-30.76171875,0.0,0
1586278680.6766477,61,1,-3.41796875,-12.6953125,-8.7890625,-33.69140625,0.0,0
1586278680.680554,61,1,-1.46484375,-32.2265625,-2.9296875,-22.4609375,0.0,0
1586278680.6844602,61,1,-12.6953125,-29.78515625,-25.390625,-9.27734375,0.0,0
1586278680.6883664,61,1,-20.01953125,-4.8828125,-32.2265625,-11.23046875,0.0,0
1586278680.6922727,61,1,-24.4140625,-27.83203125,-37.109375,-16.6015625,0.0,0
1586278680.696179,61,1,-20.99609375,-45.41015625,-38.0859375,-16.11328125,0.0,0
1586278680.7000852,61,1,-13.671875,-31.25,-13.671875,-8.30078125,0.0,0
1586278680.7039914,61,1,-14.16015625,-37.59765625,-18.06640625,6.8359375,0.0,0
1586278680.7078977,61,1,-12.20703125,-49.8046875,-46.875,9.765625,0.0,0
1586278680.711804,61,1,-20.99609375,-27.83203125,-44.921875,-9.27734375,0.0,0
1586278680.7157102,61,1,-31.73828125,-0.48828125,-27.34375,-14.6484375,0.0,0
1586278680.7196164,61,1,-20.5078125,-7.32421875,-37.109375,-2.44140625,0.0,0
1586278680.7235227,61,1,-8.30078125,-27.83203125,-40.52734375,3.41796875,0.0,0
1586278680.727429,61,1,-7.32421875,-41.9921875,-28.3203125,0.0,0.0,0
1586278680.7313352,61,1,-17.578125,-49.8046875,-26.85546875,-16.6015625,0.0,0
1586278680.7352414,61,1,-31.73828125,-33.69140625,-35.15625,-36.62109375,0.0,0
1586278680.7391477,61,1,-31.25,-19.53125,-45.41015625,-30.2734375,0.0,0
1586278680.743054,61,1,-23.92578125,-20.5078125,-29.78515625,-9.765625,0.0,0
1586278680.7469602,61,1,-20.99609375,-20.5078125,-25.87890625,-5.37109375,0.0,0
1586278680.7508664,61,1,-22.4609375,-13.18359375,-41.50390625,-12.6953125,0.0,0
1586278680.7547727,61,1,-24.90234375,-7.8125,-33.69140625,-27.34375,0.0,0
1586278680.758679,61,1,-18.5546875,-20.5078125,-21.97265625,-13.671875,0.0,0
1586278680.7625852,61,1,-13.671875,-28.80859375,-29.296875,5.859375,0.0,0
1586278680.7664914,61,1,-15.625,-33.203125,-22.4609375,5.37109375,0.0,0
1586278680.7703977,61,1,-17.08984375,-32.2265625,8.7890625,0.9765625,0.0,0
1586278680.774304,61,1,-20.5078125,-43.9453125,1.46484375,-15.13671875,0.0,0
1586278680.7782102,61,1,-23.92578125,-51.26953125,-34.66796875,-29.78515625,0.0,0
1586278680.7821164,61,1,-19.04296875,-28.80859375,-48.828125,-23.4375,0.0,0
1586278680.7860227,61,1,-22.4609375,-24.4140625,-47.36328125,-5.859375,0.0,0
1586278680.789929,61,1,-30.76171875,-45.8984375,-44.921875,-10.25390625,0.0,0
1586278680.7938352,61,1,-38.0859375,-47.8515625,-38.0859375,-29.78515625,0.0,0
1586278680.7977414,61,1,-38.57421875,-14.6484375,-28.3203125,-42.48046875,0.0,0
1586278680.8016477,61,1,-19.04296875,7.8125,-13.18359375,-26.3671875,0.0,0
1586278680.805554,61,1,-26.85546875,-12.20703125,-9.27734375,-3.41796875,0.0,0
1586278680.8094602,61,1,-41.50390625,-37.109375,-22.94921875,-9.27734375,0.0,0
1586278680.8133664,61,1,-28.80859375,-40.0390625,-33.69140625,-30.2734375,0.0,0
1586278680.8172727,61,1,-28.3203125,-35.15625,-27.83203125,-40.52734375,0.0,0
1586278680.821179,61,1,-20.99609375,-31.73828125,-22.94921875,-25.390625,0.0,0
1586278680.8250852,61,1,-15.13671875,-47.8515625,-34.66796875,-12.20703125,0.0,0
1586278680.8289914,61,1,-14.16015625,-47.36328125,-39.55078125,-7.32421875,0.0,0
1586278680.8328977,61,1,-16.6015625,-32.71484375,-39.55078125,-13.671875,0.0,0
1586278680.836804,61,1,-21.97265625,-32.2265625,-29.296875,-26.3671875,0.0,0
1586278680.8407102,61,1,-19.53125,-30.76171875,-34.1796875,-13.18359375,0.0,0
1586278680.8446164,61,1,-19.53125,-19.04296875,-23.92578125,9.765625,0.0,0
1586278680.8485227,61,1,-19.04296875,-0.9765625,0.0,12.6953125,0.0,0
1586278680.852429,61,1,-23.4375,-4.8828125,-12.20703125,-3.41796875,0.0,0
1586278680.8563352,61,1,-31.73828125,-37.109375,-7.8125,-15.625,0.0,0
1586278680.8602414,61,1,-19.53125,-48.828125,-21.97265625,-11.23046875,0.0,0
1586278680.8641477,61,1,-14.6484375,-27.83203125,-43.45703125,-1.46484375,0.0,0
1586278680.868054,61,1,-14.6484375,-26.3671875,-39.55078125,5.859375,0.0,0
1586278680.8719602,61,1,-13.671875,-42.96875,-41.015625,-7.32421875,0.0,0
1586278680.8758664,61,1,-20.01953125,-36.62109375,-39.0625,-32.2265625,0.0,0
1586278680.8797727,61,1,-14.6484375,-16.6015625,-40.52734375,-32.2265625,0.0,0
1586278680.883679,61,1,-11.71875,-28.3203125,-10.7421875,-10.25390625,0.0,0
1586278680.8875852,61,1,-9.765625,-52.24609375,-3.41796875,-0.48828125,0.0,0
1586278680.8914914,61,1,-14.16015625,-43.45703125,-35.64453125,-13.671875,0.0,0
1586278680.8953977,61,1,-22.94921875,-21.484375,-5.859375,-27.34375,0.0,0
1586278680.899304,61,1,-26.85546875,-25.87890625,0.9765625,-22.4609375,0.0,0
1586278680.9032102,61,1,-20.5078125,-34.1796875,-21.484375,-1.953125,0.0,0
1586278680.9071164,61,1,-17.578125,-32.71484375,-34.66796875,2.44140625,0.0,0
1586278680.9110227,61,1,-18.5546875,-32.2265625,-45.41015625,-16.11328125,0.0,0
1586278680.914929,61,1,-20.01953125,-40.0390625,-27.83203125,-30.76171875,0.0,0
1586278680.9188352,61,1,-25.390625,-41.50390625,-40.0390625,-24.90234375,0.0,0
1586278680.9227414,61,1,-30.76171875,-31.73828125,-58.10546875,-19.53125,0.0,0
1586278680.9266477,61,1,-35.15625,-26.85546875,-31.25,-24.4140625,0.0,0
1586278680.930554,61,1,-32.2265625,-20.01953125,-16.6015625,-22.4609375,0.0,0
1586278680.9344602,61,1,-26.3671875,-15.13671875,-22.94921875,-26.85546875,0.0,0
1586278680.9383664,61,1,-18.06640625,-37.59765625,-43.45703125,-25.390625,0.0,0
1586278680.9422727,61,1,-11.71875,-56.15234375,-24.4140625,-7.32421875,0.0,0
1586278680.946179,62,2,-15.13671875,-46.875,0.48828125,5.37109375,0.0,0
1586278680.9500852,62,2,-23.4375,-31.25,-25.87890625,-4.8828125,0.0,0
1586278680.9539914,62,2,-14.6484375,-38.0859375,-49.31640625,-23.4375,0.0,0
1586278680.9578977,62,2,-9.27734375,-47.36328125,-54.6875,-30.76171875,0.0,0
1586278680.961804,62,2,-5.859375,-21.484375,-38.0859375,-17.578125,0.0,0
1586278680.9657102,62,2,-2.9296875,-2.44140625,-8.30078125,-1.953125,0.0,0
1586278680.9696164,62,2,-15.625,-15.13671875,-20.5078125,-10.7421875,0.0,0
1586278680.9735227,62,2,-28.80859375,-26.85546875,-29.296875,-27.83203125,0.0,0
1586278680.977429,62,2,-23.92578125,-27.83203125,-39.0625,-25.87890625,0.0,0
1586278680.9813352,62,2,-18.06640625,-48.828125,-25.390625,-7.8125,0.0,0
1586278680.9852414,62,2,-23.92578125,-66.40625,-25.390625,2.44140625,0.0,0
1586278680.9891477,62,2,-27.83203125,-31.25,-33.203125,-1.46484375,0.0,0
1586278680.993054,62,2,-31.73828125,-17.578125,-21.484375,-26.85546875,0.0,0
1586278680.9969602,62,2,-37.109375,-31.25,-27.83203125,-44.43359375,0.0,0
1586278681.0008664,62,2,-26.85546875,-29.296875,-15.13671875,-25.87890625,0.0,0
1586278681.0047727,62,2,-22.4609375,-23.92578125,-18.06640625,-2.44140625,0.0,0
1586278681.008679,62,2,-24.90234375,-30.2734375,-44.921875,-12.20703125,0.0,0
1586278681.0125852,62,2,-24.4140625,-37.59765625,-51.26953125,-28.3203125,0.0,0
1586278681.0164914,62,2,-30.76171875,-31.73828125,-26.85546875,-31.25,0.0,0
1586278681.0203977,62,2,-33.203125,-18.06640625,-17.08984375,-22.94921875,0.0,0
1586278681.024304,62,2,-23.92578125,-37.59765625,-34.66796875,-2.44140625,0.0,0
1586278681.0282102,62,2,-24.90234375,-44.921875,-45.41015625,1.953125,0.0,0
1586278681.0321164,62,2,-33.203125,-32.71484375,-37.109375,-20.01953125,0.0,0
1586278681.0360227,62,2,-27.34375,-41.015625,-31.25,-26.85546875,0.0,0
1586278681.039929,62,2,-26.3671875,-36.1328125,-23.4375,-19.04296875,0.0,0
1586278681.0438352,62,2,-21.97265625,-21.97265625,-29.78515625,-3.90625,0.0,0
1586278681.0477414,62,2,-8.30078125,-20.5078125,-30.2734375,0.9765625,0.0,0
1586278681.0516477,62,2,-12.20703125,-39.0625,-23.92578125,-22.4609375,0.0,0
1586278681.055554,62,2,-17.578125,-30.76171875,-29.296875,-29.296875,0.0,0
1586278681.0594602,62,2,-14.6484375,-26.3671875,-28.80859375,-16.11328125,0.0,0
1586278681.0633664,62,2,-10.25390625,-34.66796875,-12.20703125,-5.859375,0.0,0
1586278681.0672727,62,2,-13.18359375,-29.296875,-6.34765625,-1.46484375,0.0,0
1586278681.071179,62,2,-24.4140625,-23.92578125,-42.96875,-13.18359375,0.0,0
1586278681.0750852,62,2,-23.92578125,-23.92578125,-71.77734375,-28.3203125,0.0,0
1586278681.0789914,62,2,-10.25390625,-19.53125,-27.83203125,-19.53125,0.0,0
1586278681.0828977,62,2,-12.6953125,-23.92578125,0.48828125,-1.46484375,0.0,0
1586278681.086804,62,2,-18.06640625,-24.90234375,-4.8828125,0.9765625,0.0,0
1586278681.0907102,62,2,-8.30078125,-13.671875,1.46484375,-7.8125,0.0,0
1586278681.0946164,62,2,-15.625,-24.90234375,-23.92578125,-23.4375,0.0,0
1586278681.0985227,62,2,-21.97265625,-35.15625,-40.0390625,-28.80859375,0.0,0
1586278681.102429,62,2,-15.625,-25.87890625,-10.7421875,-1.46484375,0.0,0
1586278681.1063352,62,2,-18.5546875,-30.2734375,-16.11328125,12.20703125,0.0,0
1586278681.1102414,62,2,-20.01953125,-49.31640625,-20.99609375,-1.46484375,0.0,0
1586278681.1141477,62,2,-17.08984375,-24.4140625,0.9765625,-7.8125,0.0,0
1586278681.118054,62,2,-9.765625,1.46484375,-20.5078125,-3.90625,0.0,0
1586278681.1219602,62,2,-8.30078125,-11.23046875,-33.203125,4.8828125,0.0,0
1586278681.1258664,62,2,-11.23046875,-26.85546875,-10.25390625,12.20703125,0.0,0
1586278681.1297727,62,2,-18.5546875,-16.6015625,-3.90625,4.39453125,0.0,0
1586278681.133679,62,2,-28.3203125,-9.27734375,-3.90625,-20.99609375,0.0,0
1586278681.1375852,62,2,-34.1796875,-26.85546875,-2.9296875,-39.0625,0.0,0
1586278681.1414914,62,2,-32.71484375,-36.62109375,-7.8125,-27.83203125,0.0,0
1586278681.1453977,62,2,-21.484375,-21.97265625,-12.6953125,-9.27734375,0.0,0
1586278681.149304,62,2,-22.94921875,-23.92578125,-18.5546875,-13.18359375,0.0,0
1586278681.1532102,62,2,-30.2734375,-27.83203125,-13.671875,-26.85546875,0.0,0
1586278681.1571164,62,2,-25.87890625,-20.01953125,-27.83203125,-28.80859375,0.0,0
1586278681.1610227,62,2,-12.20703125,-14.16015625,-33.203125,-12.20703125,0.0,0
1586278681.164929,62,2,-3.90625,-16.11328125,-20.01953125,-6.34765625,0.0,0
1586278681.1688352,62,2,-11.71875,-22.4609375,-41.50390625,-29.78515625,0.0,0
1586278681.1727414,62,2,-25.87890625,-28.80859375,-52.24609375,-45.8984375,0.0,0
1586278681.1766477,62,2,-33.69140625,-27.83203125,-40.0390625,-42.96875,0.0,0
1586278681.180554,62,2,-29.78515625,-30.2734375,-35.64453125,-32.2265625,0.0,0
1586278681.1844602,62,2,-26.3671875,-40.0390625,-29.296875,-11.23046875,0.0,0
1586278681.1883664,62,2,-25.390625,-42.48046875,-4.8828125,-14.6484375,0.0,0
1586278681.1922727,62,2,-28.80859375,-28.80859375,-19.53125,-32.71484375,0.0,0
1586278681.196179,62,2,-37.109375,-18.06640625,-55.6640625,-40.0390625,0.0,0
1586278681.2000852,62,2,-33.69140625,-19.04296875,-34.66796875,-39.55078125,0.0,0
1586278681.2039914,62,2,-24.90234375,-32.71484375,-30.76171875,-24.90234375,0.0,0
1586278681.2078977,62,2,-25.390625,-26.3671875,-26.3671875,-5.859375,0.0,0
1586278681.211804,62,2,-26.3671875,-23.4375,-32.2265625,-11.71875,0.0,0
1586278681.2157102,62,2,-32.2265625,-38.57421875,-39.55078125,-25.390625,0.0,0
1586278681.2196164,62,2,-32.2265625,-42.96875,-18.5546875,-20.99609375,0.0,0
1586278681.2235227,62,2,-29.296875,-39.0625,-22.4609375,-8.30078125,0.0,0
1586278681.227429,62,2,-27.34375,-16.6015625,-32.71484375,-2.9296875,0.0,0
1586278681.2313352,62,2,-28.3203125,-7.32421875,-23.4375,-15.13671875,0.0,0
1586278681.2352414,62,2,-29.296875,-23.4375,-21.97265625,-27.34375,0.0,0
1586278681.2391477,62,2,-27.34375,-36.1328125,-48.33984375,-20.01953125,0.0,0
1586278681.243054,62,2,-13.671875,-36.62109375,-49.31640625,-6.8359375,0.0,0
1586278681.2469602,62,2,-0.48828125,-26.3671875,-27.34375,0.9765625,0.0,0
1586278681.2508664,62,2,-6.8359375,-17.08984375,-49.31640625,-7.8125,0.0,0
1586278681.2547727,62,2,-14.6484375,-16.6015625,-41.50390625,-24.4140625,0.0,0
1586278681.258679,62,2,-14.6484375,-6.34765625,-6.34765625,-27.83203125,0.0,0
1586278681.2625852,62,2,-8.30078125,-20.99609375,-0.48828125,-13.671875,0.0,0
1586278681.2664914,62,2,-7.32421875,-35.15625,-13.671875,-1.46484375,0.0,0
1586278681.2703977,62,2,-10.25390625,-19.53125,-39.0625,-16.11328125,0.0,0
1586278681.274304,62,2,-12.6953125,-12.6953125,-29.78515625,-26.85546875,0.0,0
1586278681.2782102,62,2,-15.625,-22.94921875,-12.6953125,-26.85546875,0.0,0
1586278681.2821164,62,2,-4.8828125,-22.4609375,-16.6015625,-8.7890625,0.0,0
1586278681.2860227,62,2,0.48828125,-30.76171875,-17.08984375,17.08984375,0.0,0
1586278681.289929,62,2,-12.6953125,-42.96875,-19.04296875,6.34765625,0.0,0
1586278681.2938352,62,2,-29.296875,-27.83203125,-45.8984375,-12.6953125,0.0,0
1586278681.2977414,62,2,-34.66796875,-29.296875,-39.55078125,-28.80859375,0.0,0
1586278681.3016477,62,2,-23.4375,-25.390625,-10.7421875,-26.85546875,0.0,0
1586278681.305554,62,2,-19.53125,-11.23046875,-32.2265625,-5.37109375,0.0,0
1586278681.3094602,62,2,-31.73828125,-16.11328125,-16.6015625,-13.671875,0.0,0
1586278681.3133664,62,2,-31.73828125,-20.5078125,-10.7421875,-35.64453125,0.0,0
1586278681.3172727,62,2,-24.90234375,-29.296875,-20.01953125,-30.2734375,0.0,0
1586278681.321179,62,2,-27.34375,-47.36328125,-19.04296875,-14.16015625,0.0,0
1586278681.3250852,62,2,-26.3671875,-35.15625,-46.875,2.44140625,0.0,0
1586278681.3289914,62,2,-27.83203125,-29.78515625,-27.34375,0.48828125,0.0,0
1586278681.3328977,62,2,-28.3203125,-27.34375,8.7890625,-15.13671875,0.0,0
1586278681.336804,62,2,-32.71484375,-40.52734375,-2.9296875,-23.92578125,0.0,0
1586278681.3407102,62,2,-29.78515625,-53.22265625,-54.19921875,-21.484375,0.0,0
1586278681.3446164,62,2,-20.99609375,-29.78515625,-51.26953125,-6.8359375,0.0,0
1586278681.3485227,62,2,-24.4140625,-23.92578125,-16.6015625,-3.90625,0.0,0
1586278681.352429,62,2,-25.390625,-40.52734375,-29.78515625,-16.11328125,0.0,0
1586278681.3563352,62,2,-21.484375,-35.64453125,-28.80859375,-25.87890625,0.0,0
1586278681.3602414,62,2,-15.13671875,-23.4375,-23.92578125,-15.13671875,0.0,0
1586278681.3641477,62,2,-9.27734375,-17.08984375,-25.87890625,2.44140625,0.0,0
1586278681.368054,62,2,-10.25390625,-14.16015625,-23.4375,-4.8828125,0.0,0
1586278681.3719602,62,2,-19.04296875,-16.11328125,-20.99609375,-32.71484375,0.0,0
1586278681.3758664,62,2,-29.296875,-29.78515625,-12.20703125,-44.43359375,0.0,0
1586278681.3797727,62,2,-25.390625,-56.640625,-17.578125,-34.1796875,0.0,0
1586278681.383679,62,2,-17.08984375,-53.22265625,-32.2265625,-20.99609375,0.0,0
1586278681.3875852,62,2,-18.06640625,-32.2265625,-23.4375,-14.6484375,0.0,0
1586278681.3914914,62,2,-23.4375,-28.3203125,-15.625,-21.484375,0.0,0
1586278681.3953977,62,2,-29.78515625,-35.15625,-41.015625,-34.66796875,0.0,0
1586278681.399304,62,2,-27.34375,-36.62109375,-41.9921875,-33.203125,0.0,0
1586278681.4032102,62,2,-19.04296875,-26.85546875,-40.0390625,-23.4375,0.0,0
1586278681.4071164,62,2,-14.6484375,-23.92578125,-30.2734375,-12.20703125,0.0,0
1586278681.4110227,62,2,-20.99609375,-32.2265625,-22.4609375,-13.18359375,0.0,0
1586278681.414929,62,2,-34.66796875,-37.59765625,-29.78515625,-33.203125,0.0,0
1586278681.4188352,62,2,-39.0625,-29.78515625,-15.13671875,-34.1796875,0.0,0
1586278681.4227414,62,2,-28.80859375,-24.90234375,-31.73828125,-16.11328125,0.0,0
1586278681.4266477,62,2,-19.04296875,-40.0390625,-40.52734375,-4.39453125,0.0,0
1586278681.430554,62,2,-20.99609375,-50.29296875,-7.8125,-11.71875,0.0,0
1586278681.4344602,62,2,-25.87890625,-51.26953125,-16.6015625,-23.4375,0.0,0
1586278681.4383664,62,2,-24.4140625,-27.34375,-30.2734375,-23.4375,0.0,0
1586278681.4422727,62,2,-19.04296875,-12.20703125,-18.5546875,-9.765625,0.0,0
1586278681.446179,62,2,-15.625,-29.78515625,-10.25390625,7.32421875,0.0,0
1586278681.4500852,62,2,-20.99609375,-21.97265625,-38.57421875,-0.9765625,0.0,0
1586278681.4539914,62,2,-21.97265625,-12.20703125,-63.4765625,-22.94921875,0.0,0
1586278681.4578977,62,2,-20.01953125,-28.3203125,-40.0390625,-30.76171875,0.0,0
1586278681.461804,62,2,-18.5546875,-30.2734375,-30.76171875,-14.6484375,0.0,0
1586278681.4657102,62,2,-18.5546875,-10.25390625,-18.5546875,-5.859375,0.0,0
1586278681.4696164,62,2,-19.04296875,-15.625,-20.99609375,-15.13671875,0.0,0
1586278681.4735227,62,2,-20.5078125,-35.15625,-19.04296875,-25.390625,0.0,0
1586278681.477429,62,2,-19.04296875,-36.62109375,-5.37109375,-25.87890625,0.0,0
1586278681.4813352,62,2,-10.25390625,-37.59765625,-3.90625,-9.765625,0.0,0
1586278681.4852414,62,2,-8.7890625,-37.59765625,12.20703125,2.9296875,0.0,0
1586278681.4891477,62,2,-17.08984375,-19.04296875,16.11328125,-6.8359375,0.0,0
1586278681.493054,62,2,-19.53125,-4.8828125,-0.48828125,-21.484375,0.0,0
1586278681.4969602,62,2,-19.04296875,-17.578125,-27.83203125,-32.71484375,0.0,0
1586278681.5008664,62,2,-13.18359375,-23.92578125,-40.52734375,-22.94921875,0.0,0
1586278681.5047727,62,2,-0.9765625,-25.390625,-41.50390625,-1.46484375,0.0,0
1586278681.508679,62,2,-10.25390625,-28.80859375,-32.2265625,0.48828125,0.0,0
1586278681.5125852,62,2,-22.94921875,-40.0390625,-37.109375,-12.20703125,0.0,0
1586278681.5164914,62,2,-31.73828125,-50.78125,-57.6171875,-24.90234375,0.0,0
1586278681.5203977,62,2,-31.73828125,-31.73828125,-41.50390625,-20.01953125,0.0,0
1586278681.524304,62,2,-24.4140625,-11.23046875,-2.9296875,-3.41796875,0.0,0
1586278681.5282102,62,2,-27.34375,-27.83203125,9.765625,-2.44140625,0.0,0
1586278681.5321164,62,2,-30.2734375,-30.76171875,-7.32421875,-15.625,0.0,0
1586278681.5360227,62,2,-38.57421875,-22.4609375,-27.83203125,-28.3203125,0.0,0
1586278681.539929,62,2,-33.203125,-21.97265625,-26.85546875,-26.85546875,0.0,0
1586278681.5438352,62,2,-15.625,-19.53125,-21.484375,-9.765625,0.0,0
1586278681.5477414,62,2,-5.859375,-30.2734375,-41.9921875,0.0,0.0,0
1586278681.5516477,62,2,-14.16015625,-22.4609375,-27.83203125,-17.08984375,0.0,0
1586278681.555554,62,2,-22.4609375,-10.25390625,-28.80859375,-23.4375,0.0,0
1586278681.5594602,62,2,-17.08984375,-15.13671875,-31.73828125,-11.71875,0.0,0
1586278681.5633664,62,2,-16.6015625,-37.109375,5.859375,-0.9765625,0.0,0
1586278681.5672727,62,2,-19.04296875,-42.96875,-16.6015625,5.859375,0.0,0
1586278681.571179,62,2,-21.97265625,-18.06640625,-28.80859375,3.41796875,0.0,0
1586278681.5750852,62,2,-30.2734375,-16.6015625,-1.46484375,-10.7421875,0.0,0
1586278681.5789914,62,2,-26.85546875,-16.6015625,8.30078125,-13.671875,0.0,0
1586278681.5828977,62,2,-17.08984375,-30.76171875,-6.8359375,1.953125,0.0,0
1586278681.586804,62,2,-13.18359375,-55.6640625,-26.3671875,6.8359375,0.0,0
1586278681.5907102,62,2,-22.94921875,-33.69140625,-31.25,-2.9296875,0.0,0
1586278681.5946164,62,2,-37.59765625,-22.94921875,-24.4140625,-32.71484375,0.0,0
1586278681.5985227,62,2,-32.2265625,-22.4609375,-36.1328125,-42.48046875,0.0,0
1586278681.602429,62,2,-22.4609375,-20.01953125,-41.015625,-21.484375,0.0,0
1586278681.6063352,62,2,-19.04296875,-41.9921875,-2.44140625,-8.30078125,0.0,0
1586278681.6102414,62,2,-21.484375,-28.3203125,11.23046875,-16.6015625,0.0,0
1586278681.6141477,62,2,-24.4140625,-13.18359375,-11.71875,-31.73828125,0.0,0
1586278681.618054,62,2,-19.04296875,-30.2734375,-20.01953125,-31.25,0.0,0
1586278681.6219602,62,2,-17.08984375,-41.50390625,-21.484375,-18.06640625,0.0,0
1586278681.6258664,62,2,-22.94921875,-34.66796875,-30.2734375,-5.37109375,0.0,0
1586278681.6297727,62,2,-27.34375,-32.2265625,-30.2734375,-15.625,0.0,0
1586278681.633679,62,2,-30.76171875,-38.0859375,-47.8515625,-49.31640625,0.0,0
1586278681.6375852,62,2,-33.69140625,-35.64453125,-68.84765625,-50.78125,0.0,0
1586278681.6414914,62,2,-29.78515625,-24.4140625,-59.08203125,-25.390625,0.0,0
1586278681.6453977,62,2,-20.01953125,-27.34375,-42.48046875,-17.08984375,0.0,0
1586278681.649304,62,2,-19.53125,-37.109375,-17.08984375,-23.92578125,0.0,0
1586278681.6532102,62,2,-20.99609375,-41.50390625,7.8125,-36.62109375,0.0,0
1586278681.6571164,62,2,-19.04296875,-28.3203125,-17.08984375,-41.50390625,0.0,0
1586278681.6610227,62,2,-16.11328125,-7.32421875,-34.66796875,-30.2734375,0.0,0
1586278681.664929,62,2,-9.27734375,-16.6015625,-32.2265625,-1.953125,0.0,0
1586278681.6688352,62,2,-9.27734375,-30.76171875,-39.0625,5.37109375,0.0,0
1586278681.6727414,62,2,-13.671875,-38.0859375,-10.25390625,-21.97265625,0.0,0
1586278681.6766477,62,2,-23.92578125,-44.921875,-4.8828125,-32.2265625,0.0,0
1586278681.680554,62,2,-27.34375,-40.0390625,-13.18359375,-20.5078125,0.0,0
1586278681.6844602,62,2,-23.4375,-36.62109375,-27.34375,-4.39453125,0.0,0
1586278681.6883664,62,2,-25.390625,-21.484375,-37.59765625,-1.46484375,0.0,0
1586278681.6922727,62,2,-26.85546875,-8.7890625,-14.16015625,-15.13671875,0.0,0
1586278681.696179,62,2,-31.25,-24.4140625,-9.765625,-33.203125,0.0,0
1586278681.7000852,62,2,-31.73828125,-34.1796875,-2.9296875,-37.109375,0.0,0
1586278681.7039914,62,2,-29.78515625,-33.69140625,-8.7890625,-18.06640625,0.0,0
1586278681.7078977,62,2,-23.92578125,-14.16015625,-42.48046875,-4.8828125,0.0,0
1586278681.711804,62,2,-19.04296875,-11.23046875,-46.38671875,-13.18359375,0.0,0
1586278681.7157102,62,2,-24.4140625,-36.62109375,-40.52734375,-24.4140625,0.0,0
1586278681.7196164,62,2,-27.83203125,-53.7109375,-46.875,-16.6015625,0.0,0
1586278681.7235227,62,2,-20.01953125,-48.828125,-24.4140625,-3.90625,0.0,0
1586278681.727429,62,2,-18.5546875,-40.0390625,-6.34765625,-2.9296875,0.0,0
1586278681.7313352,62,2,-32.2265625,-31.73828125,-15.625,-21.97265625,0.0,0
1586278681.7352414,62,2,-29.78515625,-10.7421875,-10.25390625,-32.2265625,0.0,0
1586278681.7391477,62,2,-19.04296875,-16.6015625,-14.6484375,-27.83203125,0.0,0
1586278681.743054,62,2,-13.671875,-38.57421875,-21.484375,-4.8828125,0.0,0
1586278681.7469602,62,2,-14.6484375,-28.3203125,-40.52734375,5.859375,0.0,0
1586278681.7508664,62,2,-22.4609375,-32.2265625,-54.6875,-13.671875,0.0,0
1586278681.7547727,62,2,-28.80859375,-48.33984375,-49.8046875,-34.66796875,0.0,0
1586278681.758679,62,2,-25.390625,-33.69140625,-27.34375,-33.203125,0.0,0
1586278681.7625852,62,2,-13.18359375,-23.4375,-7.8125,-9.765625,0.0,0
1586278681.7664914,62,2,-6.8359375,-18.5546875,-11.23046875,5.37109375,0.0,0
1586278681.7703977,62,2,-10.25390625,-7.32421875,-19.04296875,-7.32421875,0.0,0
1586278681.774304,62,2,-18.5546875,-14.6484375,-16.6015625,-22.4609375,0.0,0
1586278681.7782102,62,2,-24.90234375,-30.76171875,-11.23046875,-20.5078125,0.0,0
1586278681.7821164,62,2,-15.625,-35.64453125,-19.53125,-2.44140625,0.0,0
1586278681.7860227,62,2,-12.20703125,-36.62109375,-33.203125,17.08984375,0.0,0
1586278681.789929,62,2,-22.4609375,-40.52734375,-40.52734375,4.8828125,0.0,0
1586278681.7938352,62,2,-28.3203125,-44.921875,-45.41015625,-15.13671875,0.0,0
1586278681.7977414,62,2,-28.3203125,-38.0859375,-33.203125,-24.90234375,0.0,0
1586278681.8016477,62,2,-16.6015625,-27.34375,-31.73828125,-20.99609375,0.0,0
1586278681.805554,62,2,-14.6484375,-32.2265625,-33.69140625,-1.953125,0.0,0
1586278681.8094602,62,2,-21.97265625,-34.66796875,-12.20703125,-0.48828125,0.0,0
1586278681.8133664,62,2,-23.92578125,-19.04296875,-23.92578125,-15.13671875,0.0,0
1586278681.8172727,62,2,-20.01953125,-20.99609375,-23.4375,-26.3671875,0.0,0
1586278681.821179,62,2,-14.16015625,-30.2734375,2.44140625,-15.13671875,0.0,0
1586278681.8250852,62,2,-12.20703125,-36.62109375,12.20703125,4.39453125,0.0,0
1586278681.8289914,62,2,-15.13671875,-32.71484375,-7.32421875,4.39453125,0.0,0
1586278681.8328977,62,2,-23.92578125,-36.62109375,-37.109375,-17.08984375,0.0,0
1586278681.836804,62,2,-22.4609375,-46.875,-44.43359375,-26.85546875,0.0,0
1586278681.8407102,62,2,-14.6484375,-38.57421875,-22.94921875,-24.4140625,0.0,0
1586278681.8446164,62,2,-11.71875,-28.80859375,-35.64453125,-14.6484375,0.0,0
1586278681.8485227,62,2,-11.23046875,-25.390625,-46.875,-9.27734375,0.0,0
1586278681.852429,62,2,-15.625,-23.4375,-19.53125,-23.92578125,0.0,0
1586278681.8563352,62,2,-16.6015625,-7.32421875,-15.13671875,-32.71484375,0.0,0
1586278681.8602414,62,2,-17.08984375,-7.32421875,-19.53125,-18.06640625,0.0,0
1586278681.8641477,62,2,-15.625,-20.99609375,-29.296875,6.8359375,0.0,0
1586278681.868054,62,2,-20.99609375,-32.71484375,-21.97265625,7.32421875,0.0,0
1586278681.8719602,62,2,-27.83203125,-45.41015625,-30.76171875,-12.20703125,0.0,0
1586278681.8758664,62,2,-24.4140625,-42.48046875,-43.45703125,-29.296875,0.0,0
1586278681.8797727,62,2,-18.06640625,-34.66796875,-20.01953125,-19.04296875,0.0,0
1586278681.883679,62,2,-16.11328125,-22.4609375,-0.48828125,0.48828125,0.0,0
1586278681.8875852,62,2,-15.13671875,-13.18359375,-23.4375,7.32421875,0.0,0
1586278681.8914914,62,2,-16.6015625,-24.90234375,-47.36328125,-3.90625,0.0,0
1586278681.8953977,62,2,-20.99609375,-49.8046875,-33.69140625,-21.484375,0.0,0
1586278681.899304,62,2,-23.92578125,-47.36328125,-23.4375,-25.87890625,0.0,0
1586278681.9032102,62,2,-20.5078125,-41.9921875,-32.71484375,-11.71875,0.0,0
1586278681.9071164,62,2,-14.16015625,-46.38671875,-39.0625,1.953125,0.0,0
1586278681.9110227,62,2,-25.390625,-35.15625,-27.83203125,-6.8359375,0.0,0
1586278681.914929,62,2,-34.1796875,-23.92578125,-32.2265625,-24.90234375,0.0,0
1586278681.9188352,62,2,-26.85546875,-28.3203125,-22.4609375,-19.04296875,0.0,0
1586278681.9227414,62,2,-20.5078125,-42.96875,-10.25390625,-3.90625,0.0,0
1586278681.9266477,62,2,-20.99609375,-27.83203125,-32.2265625,0.48828125,0.0,0
1586278681.930554,62,2,-21.97265625,-24.90234375,-31.25,-9.765625,0.0,0
1586278681.9344602,62,2,-16.11328125,-30.76171875,-32.71484375,-26.3671875,0.0,0
1586278681.9383664,62,2,-14.16015625,-10.25390625,-23.92578125,-31.73828125,0.0,0
1586278681.9422727,62,2,-14.16015625,-3.90625,4.8828125,-19.04296875,0.0,0
1586278681.946179,62,2,-8.7890625,-16.11328125,-36.62109375,-10.25390625,0.0,0
1586278681.9500852,62,2,-12.6953125,-29.78515625,-76.171875,-20.5078125,0.0,0
1586278681.9539914,62,2,-19.04296875,-41.9921875,-39.55078125,-27.34375,0.0,0
1586278681.9578977,62,2,-24.4140625,-41.9921875,-20.5078125,-28.80859375,0.0,0
1586278681.961804,62,2,-32.2265625,-34.66796875,-28.80859375,-27.34375,0.0,0
1586278681.9657102,62,2,-29.296875,-30.76171875,-34.66796875,-15.13671875,0.0,0
1586278681.9696164,62,2,-28.80859375,-21.97265625,-23.92578125,-4.8828125,0.0,0
1586278681.9735227,62,2,-42.96875,-27.83203125,-25.390625,-22.94921875,0.0,0
1586278681.977429,62,2,-42.96875,-36.1328125,-25.87890625,-39.0625,0.0,0
1586278681.9813352,62,2,-32.71484375,-41.9921875,-29.296875,-32.2265625,0.0,0
1586278681.9852414,62,2,-35.15625,-42.48046875,-33.203125,-22.94921875,0.0,0
1586278681.9891477,62,2,-41.9921875,-37.59765625,-23.4375,-22.94921875,0.0,0
1586278681.993054,62,2,-53.22265625,-30.2734375,-16.6015625,-42.96875,0.0,0
1586278681.9969602,62,2,-52.734375,-18.5546875,-12.6953125,-57.12890625,0.0,0
1586278682.0008664,62,2,-57.6171875,-12.6953125,-10.7421875,-56.640625,0.0,0
1586278682.0047727,62,2,-63.4765625,-8.30078125,2.44140625,-53.7109375,0.0,0
1586278682.008679,62,2,-68.359375,8.30078125,12.20703125,-65.4296875,0.0,0
1586278682.0125852,62,2,-100.09765625,21.484375,-4.39453125,-106.4453125,0.0,0
1586278682.0164914,62,2,-123.53515625,6.8359375,-0.9765625,-131.8359375,0.0,0
1586278682.0203977,62,2,-139.16015625,3.41796875,17.578125,-134.27734375,0.0,0
1586278682.024304,62,2,-155.76171875,16.6015625,18.5546875,-137.20703125,0.0,0
1586278682.0282102,62,2,-169.921875,20.5078125,16.11328125,-153.80859375,0.0,0
1586278682.0321164,62,2,-194.82421875,28.80859375,19.53125,-181.640625,0.0,0
1586278682.0360227,62,2,-210.44921875,28.80859375,36.62109375,-207.03125,0.0,0
1586278682.039929,62,2,-213.8671875,21.97265625,25.87890625,-214.84375,0.0,0
1586278682.0438352,62,2,-216.30859375,35.15625,28.3203125,-197.265625,0.0,0
1586278682.0477414,62,2,-224.609375,36.1328125,49.8046875,-200.1953125,0.0,0
1586278682.0516477,62,2,-235.83984375,31.73828125,35.64453125,-229.98046875,0.0,0
1586278682.055554,62,2,-238.28125,45.8984375,24.90234375,-244.62890625,0.0,0
1586278682.0594602,62,2,-236.81640625,38.57421875,59.08203125,-231.93359375,0.0,0
1586278682.0633664,62,2,-225.09765625,27.83203125,67.87109375,-209.9609375,0.0,0
1586278682.0672727,62,2,-206.54296875,30.76171875,55.6640625,-196.77734375,0.0,0
1586278682.071179,62,2,-197.265625,24.90234375,62.01171875,-199.21875,0.0,0
1586278682.0750852,62,2,-195.3125,17.578125,50.78125,-200.68359375,0.0,0
1586278682.0789914,62,2,-181.640625,13.18359375,25.87890625,-185.546875,0.0,0
1586278682.0828977,62,2,-158.69140625,5.859375,20.99609375,-151.3671875,0.0,0
1586278682.086804,62,2,-139.6484375,8.7890625,28.80859375,-118.65234375,0.0,0
1586278682.0907102,62,2,-128.41796875,8.30078125,15.625,-116.69921875,0.0,0
1586278682.0946164,62,2,-121.09375,0.9765625,-22.94921875,-113.76953125,0.0,0
1586278682.0985227,62,2,-108.3984375,4.39453125,-19.53125,-98.6328125,0.0,0
1586278682.102429,62,2,-89.35546875,-2.9296875,3.41796875,-77.63671875,0.0,0
1586278682.1063352,62,2,-71.77734375,-23.92578125,-11.23046875,-61.03515625,0.0,0
1586278682.1102414,62,2,-70.80078125,-33.203125,-4.8828125,-67.87109375,0.0,0
1586278682.1141477,62,2,-66.40625,-36.62109375,-12.6953125,-74.70703125,0.0,0
1586278682.118054,62,2,-51.26953125,-42.48046875,-27.34375,-61.03515625,0.0,0
1586278682.1219602,62,2,-32.71484375,-52.734375,-35.64453125,-27.34375,0.0,0
1586278682.1258664,62,2,-21.484375,-48.828125,-38.0859375,-3.90625,0.0,0
1586278682.1297727,62,2,-7.32421875,-23.92578125,-47.36328125,10.7421875,0.0,0
1586278682.133679,62,2,9.765625,-17.08984375,-62.5,16.11328125,0.0,0
1586278682.1375852,62,2,6.8359375,-26.85546875,-28.3203125,5.37109375,0.0,0
1586278682.1414914,62,2,14.6484375,-33.203125,-6.34765625,24.4140625,0.0,0
1586278682.1453977,62,2,28.80859375,-25.87890625,-21.97265625,39.0625,0.0,0
1586278682.149304,62,2,24.4140625,-37.59765625,-37.109375,38.57421875,0.0,0
1586278682.1532102,62,2,17.08984375,-59.5703125,-41.9921875,25.390625,0.0,0
1586278682.1571164,62,2,20.99609375,-62.5,-37.109375,16.11328125,0.0,0
1586278682.1610227,62,2,29.78515625,-59.08203125,-47.36328125,35.64453125,0.0,0
1586278682.164929,62,2,33.203125,-59.08203125,-63.4765625,43.9453125,0.0,0
1586278682.1688352,62,2,30.2734375,-52.24609375,-69.82421875,41.015625,0.0,0
1586278682.1727414,62,2,27.83203125,-36.62109375,-56.640625,33.203125,0.0,0
1586278682.1766477,62,2,31.25,-44.43359375,-50.29296875,22.94921875,0.0,0
1586278682.180554,62,2,37.109375,-67.87109375,-42.96875,35.15625,0.0,0
1586278682.1844602,62,2,43.45703125,-56.640625,-51.26953125,54.19921875,0.0,0
1586278682.1883664,62,2,41.015625,-33.203125,-70.80078125,52.734375,0.0,0
1586278682.1922727,62,2,46.38671875,-39.0625,-27.34375,57.12890625,0.0,0
1586278682.196179,62,2,48.828125,-71.77734375,-0.9765625,62.01171875,0.0,0
1586278682.2000852,62,2,40.52734375,-65.91796875,-46.38671875,57.6171875,0.0,0
1586278682.2039914,62,2,41.015625,-32.2265625,-61.03515625,60.05859375,0.0,0
1586278682.2078977,62,2,40.52734375,-33.69140625,-66.89453125,66.40625,0.0,0
1586278682.211804,62,2,34.1796875,-36.1328125,-74.70703125,56.640625,0.0,0
1586278682.2157102,62,2,37.59765625,-35.64453125,-62.01171875,38.57421875,0.0,0
1586278682.2196164,62,2,42.96875,-37.59765625,-40.52734375,37.109375,0.0,0
1586278682.2235227,62,2,47.36328125,-55.6640625,-24.90234375,58.59375,0.0,0
1586278682.227429,62,2,58.59375,-77.1484375,-59.5703125,73.73046875,0.0,0
1586278682.2313352,62,2,52.734375,-52.734375,-54.6875,55.17578125,0.0,0
1586278682.2352414,62,2,43.9453125,-28.3203125,-17.578125,36.1328125,0.0,0
1586278682.2391477,62,2,45.41015625,-29.296875,-31.73828125,45.41015625,0.0,0
1586278682.243054,62,2,43.9453125,-28.3203125,-46.875,62.5,0.0,0
1586278682.2469602,62,2,38.0859375,-33.203125,-40.52734375,58.10546875,0.0,0
1586278682.2508664,62,2,31.25,-49.31640625,-37.59765625,42.96875,0.0,0
1586278682.2547727,62,2,23.4375,-54.6875,-49.31640625,19.53125,0.0,0
1586278682.258679,62,2,21.97265625,-45.41015625,-62.5,19.04296875,0.0,0
1586278682.2625852,62,2,31.25,-58.59375,-40.52734375,42.96875,0.0,0
1586278682.2664914,62,2,35.15625,-53.22265625,-51.26953125,48.828125,0.0,0
1586278682.2703977,62,2,32.71484375,-38.0859375,-63.96484375,39.55078125,0.0,0
1586278682.274304,62,2,32.71484375,-52.24609375,-54.19921875,27.34375,0.0,0
1586278682.2782102,62,2,41.50390625,-34.1796875,-56.15234375,28.3203125,0.0,0
1586278682.2821164,62,2,45.8984375,-27.83203125,-36.62109375,37.59765625,0.0,0
1586278682.2860227,62,2,40.52734375,-66.40625,-31.25,44.921875,0.0,0
1586278682.289929,62,2,33.69140625,-48.33984375,-34.1796875,33.69140625,0.0,0
1586278682.2938352,62,2,25.87890625,-14.16015625,-31.25,11.23046875,0.0,0
1586278682.2977414,62,2,25.87890625,-23.4375,-25.87890625,3.41796875,0.0,0
1586278682.3016477,62,2,32.71484375,-31.25,-20.5078125,23.4375,0.0,0
1586278682.305554,62,2,37.109375,-29.296875,-51.7578125,40.52734375,0.0,0
1586278682.3094602,62,2,30.76171875,-29.78515625,-51.26953125,34.1796875,0.0,0
1586278682.3133664,62,2,14.16015625,-48.33984375,-57.12890625,6.34765625,0.0,0
1586278682.3172727,62,2,5.37109375,-62.98828125,-76.66015625,-7.32421875,0.0,0
1586278682.321179,62,2,3.41796875,-63.96484375,-53.22265625,8.30078125,0.0,0
1586278682.3250852,62,2,12.6953125,-52.24609375,-33.69140625,25.390625,0.0,0
1586278682.3289914,62,2,15.625,-53.7109375,-42.96875,27.83203125,0.0,0
1586278682.3328977,62,2,12.20703125,-55.6640625,-43.9453125,14.6484375,0.0,0
1586278682.336804,62,2,15.625,-44.921875,-36.1328125,6.34765625,0.0,0
1586278682.3407102,62,2,23.4375,-56.15234375,-41.50390625,20.01953125,0.0,0
1586278682.3446164,62,2,20.01953125,-53.22265625,-56.640625,25.87890625,0.0,0
1586278682.3485227,62,2,9.765625,-26.85546875,-55.6640625,16.6015625,0.0,0
1586278682.352429,62,2,0.48828125,-38.0859375,-32.71484375,-5.37109375,0.0,0
1586278682.3563352,62,2,-1.953125,-46.875,-31.73828125,-12.6953125,0.0,0
1586278682.3602414,62,2,-2.9296875,-34.1796875,-39.55078125,-3.41796875,0.0,0
1586278682.3641477,62,2,-1.953125,-36.62109375,-51.7578125,7.32421875,0.0,0
1586278682.368054,62,2,-0.9765625,-50.78125,-47.36328125,14.6484375,0.0,0
1586278682.3719602,62,2,-8.30078125,-44.43359375,-54.19921875,-1.953125,0.0,0
1586278682.3758664,62,2,-8.30078125,-36.1328125,-61.03515625,-14.6484375,0.0,0
1586278682.3797727,62,2,-4.39453125,-44.921875,-57.6171875,-13.18359375,0.0,0
1586278682.383679,62,2,0.9765625,-38.0859375,-48.828125,3.90625,0.0,0
1586278682.3875852,62,2,8.7890625,-29.296875,-30.2734375,21.484375,0.0,0
1586278682.3914914,62,2,11.23046875,-37.59765625,-25.390625,5.37109375,0.0,0
1586278682.3953977,62,2,1.46484375,-61.03515625,-21.484375,-15.13671875,0.0,0
1586278682.399304,62,2,-5.37109375,-62.01171875,-31.25,-9.765625,0.0,0
1586278682.4032102,62,2,-5.37109375,-39.55078125,-28.80859375,8.30078125,0.0,0
1586278682.4071164,62,2,-7.32421875,-21.484375,-39.55078125,6.8359375,0.0,0
1586278682.4110227,62,2,-12.20703125,-24.4140625,-43.9453125,0.0,0.0,0
1586278682.414929,62,2,-6.8359375,-41.9921875,-36.62109375,-3.41796875,0.0,0
1586278682.4188352,62,2,-3.41796875,-38.57421875,-40.0390625,-2.9296875,0.0,0
1586278682.4227414,62,2,0.0,-25.87890625,-50.78125,3.41796875,0.0,0
1586278682.4266477,62,2,6.8359375,-21.484375,-28.3203125,20.99609375,0.0,0
1586278682.430554,62,2,4.8828125,-29.296875,-5.859375,13.18359375,0.0,0
1586278682.4344602,62,2,-5.859375,-34.66796875,-34.1796875,-14.16015625,0.0,0
1586278682.4383664,62,2,-7.8125,-31.25,-35.15625,-9.765625,0.0,0
1586278682.4422727,62,2,0.48828125,-50.78125,-9.765625,4.8828125,0.0,0
1586278682.446179,62,2,1.953125,-54.6875,-10.7421875,19.04296875,0.0,0
1586278682.4500852,62,2,2.44140625,-39.55078125,-35.15625,7.8125,0.0,0
1586278682.4539914,62,2,2.44140625,-24.90234375,-42.48046875,-12.6953125,0.0,0
1586278682.4578977,62,2,2.44140625,-7.8125,-38.0859375,-14.16015625,0.0,0
1586278682.461804,62,2,7.8125,-21.97265625,-24.90234375,4.8828125,0.0,0
1586278682.4657102,62,2,2.44140625,-40.0390625,-30.2734375,13.671875,0.0,0
1586278682.4696164,62,2,-2.44140625,-45.41015625,-41.015625,4.39453125,0.0,0
1586278682.4735227,62,2,-3.90625,-39.0625,-15.13671875,-13.18359375,0.0,0
1586278682.477429,62,2,-10.25390625,-27.83203125,-18.5546875,-21.97265625,0.0,0
1586278682.4813352,62,2,-12.20703125,-42.48046875,-41.9921875,-4.39453125,0.0,0
1586278682.4852414,62,2,-11.23046875,-36.62109375,-42.96875,6.34765625,0.0,0
1586278682.4891477,62,2,-13.18359375,-10.25390625,-7.8125,-0.9765625,0.0,0
1586278682.493054,62,2,-18.5546875,-13.671875,-14.6484375,-18.06640625,0.0,0
1586278682.4969602,62,2,-20.01953125,-25.390625,-29.78515625,-22.94921875,0.0,0
1586278682.5008664,62,2,-17.08984375,-33.69140625,-14.6484375,-12.20703125,0.0,0
1586278682.5047727,62,2,-16.11328125,-32.71484375,-22.94921875,6.8359375,0.0,0
1586278682.508679,62,2,-14.16015625,-32.71484375,-41.9921875,9.27734375,0.0,0
1586278682.5125852,62,2,-18.5546875,-42.48046875,-35.64453125,-9.765625,0.0,0
1586278682.5164914,62,2,-23.4375,-42.96875,-23.4375,-23.4375,0.0,0
1586278682.5203977,62,2,-13.18359375,-40.0390625,-21.97265625,-19.53125,0.0,0
1586278682.524304,62,2,-9.765625,-30.2734375,-20.5078125,7.32421875,0.0,0
1586278682.5282102,62,2,-10.25390625,-38.57421875,-37.59765625,20.5078125,0.0,0
1586278682.5321164,62,2,-13.671875,-57.12890625,-12.20703125,2.44140625,0.0,0
1586278682.5360227,62,2,-19.53125,-26.85546875,9.27734375,-17.578125,0.0,0
1586278682.539929,62,2,-20.99609375,-14.16015625,-40.52734375,-9.765625,0.0,0
1586278682.5438352,62,2,-6.8359375,-23.92578125,-66.40625,9.27734375,0.0,0
1586278682.5477414,62,2,0.48828125,-29.78515625,-47.36328125,7.32421875,0.0,0
1586278682.5516477,62,2,-12.20703125,-30.76171875,-27.34375,-8.30078125,0.0,0
1586278682.555554,62,2,-19.04296875,-31.73828125,-22.94921875,-17.578125,0.0,0
1586278682.5594602,62,2,-16.6015625,-48.33984375,-25.390625,-9.27734375,0.0,0
1586278682.5633664,62,2,-4.8828125,-39.55078125,-30.2734375,5.859375,0.0,0
1586278682.5672727,62,2,0.0,-20.01953125,-17.08984375,20.01953125,0.0,0
1586278682.571179,62,2,-4.39453125,-20.99609375,-14.16015625,15.13671875,0.0,0
1586278682.5750852,62,2,-7.8125,-13.671875,-23.92578125,-13.671875,0.0,0
1586278682.5789914,62,2,-6.34765625,-9.27734375,-23.92578125,-18.06640625,0.0,0
1586278682.5828977,62,2,0.9765625,-21.97265625,-21.97265625,3.41796875,0.0,0
1586278682.586804,62,2,2.44140625,-52.24609375,-25.390625,7.32421875,0.0,0
1586278682.5907102,62,2,-11.71875,-58.10546875,-20.99609375,-2.9296875,0.0,0
1586278682.5946164,62,2,-21.484375,-29.78515625,-24.90234375,-25.87890625,0.0,0
1586278682.5985227,62,2,-22.94921875,-17.578125,-33.203125,-36.62109375,0.0,0
1586278682.602429,62,2,-23.92578125,-38.0859375,-39.55078125,-16.11328125,0.0,0
1586278682.6063352,62,2,-21.97265625,-41.50390625,-30.76171875,4.39453125,0.0,0
1586278682.6102414,62,2,-16.11328125,-35.64453125,-17.08984375,3.41796875,0.0,0
1586278682.6141477,62,2,-14.16015625,-42.48046875,-29.78515625,-15.13671875,0.0,0
1586278682.618054,62,2,-20.01953125,-20.99609375,-41.015625,-19.04296875,0.0,0
1586278682.6219602,62,2,-17.08984375,-23.4375,-25.390625,-4.8828125,0.0,0
1586278682.6258664,62,2,-10.25390625,-37.109375,-5.37109375,12.6953125,0.0,0
1586278682.6297727,62,2,-11.71875,-23.92578125,-27.34375,16.6015625,0.0,0
1586278682.633679,62,2,-17.08984375,-20.01953125,-22.4609375,-9.765625,0.0,0
1586278682.6375852,62,2,-19.53125,-34.66796875,-4.8828125,-24.4140625,0.0,0
1586278682.6414914,62,2,-16.6015625,-46.38671875,-26.3671875,-20.99609375,0.0,0
1586278682.6453977,62,2,-19.53125,-45.41015625,7.32421875,-15.13671875,0.0,0
1586278682.649304,62,2,-26.85546875,-36.62109375,-3.90625,-6.8359375,0.0,0
1586278682.6532102,62,2,-26.85546875,-22.4609375,-40.52734375,-20.5078125,0.0,0
1586278682.6571164,62,2,-18.06640625,-27.83203125,-29.78515625,-36.1328125,0.0,0
1586278682.6610227,62,2,-14.16015625,-39.0625,-25.87890625,-23.92578125,0.0,0
1586278682.664929,62,2,-8.30078125,-40.52734375,-16.11328125,-0.48828125,0.0,0
1586278682.6688352,62,2,-13.671875,-32.2265625,-13.18359375,-0.48828125,0.0,0
1586278682.6727414,62,2,-28.3203125,-38.57421875,-31.25,-18.06640625,0.0,0
1586278682.6766477,62,2,-24.4140625,-44.43359375,-53.22265625,-27.83203125,0.0,0
1586278682.680554,62,2,-18.06640625,-28.3203125,-45.41015625,-28.3203125,0.0,0
1586278682.6844602,62,2,-10.7421875,-23.4375,3.41796875,-13.18359375,0.0,0
1586278682.6883664,62,2,-9.765625,-20.99609375,22.94921875,-4.39453125,0.0,0
1586278682.6922727,62,2,-21.97265625,-33.203125,-11.23046875,-26.3671875,0.0,0
1586278682.696179,62,2,-27.34375,-52.24609375,-25.390625,-34.1796875,0.0,0
1586278682.7000852,62,2,-19.53125,-47.8515625,-13.18359375,-21.97265625,0.0,0
1586278682.7039914,62,2,-11.71875,-43.9453125,-18.5546875,-6.8359375,0.0,0
1586278682.7078977,62,2,-5.859375,-36.1328125,-2.44140625,5.37109375,0.0,0
1586278682.711804,62,2,-17.08984375,-17.578125,-14.6484375,-17.578125,0.0,0
1586278682.7157102,62,2,-31.25,-24.4140625,-59.08203125,-44.921875,0.0,0
1586278682.7196164,62,2,-23.92578125,-23.92578125,-49.8046875,-30.2734375,0.0,0
1586278682.7235227,62,2,-9.27734375,-25.87890625,-20.5078125,-6.8359375,0.0,0
1586278682.727429,62,2,-8.30078125,-47.8515625,-35.15625,0.9765625,0.0,0
1586278682.7313352,62,2,-13.18359375,-42.48046875,-17.08984375,-6.8359375,0.0,0
1586278682.7352414,62,2,-15.13671875,-28.80859375,7.8125,-22.94921875,0.0,0
1586278682.7391477,62,2,-11.71875,-23.92578125,-4.8828125,-18.06640625,0.0,0
1586278682.743054,62,2,-10.25390625,-28.3203125,-24.4140625,-2.9296875,0.0,0
1586278682.7469602,62,2,-8.30078125,-45.41015625,-34.1796875,17.578125,0.0,0
1586278682.7508664,62,2,-18.5546875,-45.41015625,-7.8125,5.859375,0.0,0
1586278682.7547727,62,2,-30.76171875,-27.34375,10.7421875,-27.83203125,0.0,0
1586278682.758679,62,2,-20.99609375,-36.1328125,8.30078125,-19.53125,0.0,0
1586278682.7625852,62,2,-17.578125,-49.31640625,-22.4609375,8.7890625,0.0,0
1586278682.7664914,62,2,-12.6953125,-34.66796875,-32.2265625,15.13671875,0.0,0
1586278682.7703977,62,2,-10.7421875,-18.06640625,11.71875,0.0,0.0,0
1586278682.774304,62,2,-20.5078125,-30.76171875,6.34765625,-19.53125,0.0,0
1586278682.7782102,62,2,-16.6015625,-39.55078125,-20.01953125,-22.94921875,0.0,0
1586278682.7821164,62,2,-11.71875,-32.2265625,-13.18359375,-21.97265625,0.0,0
1586278682.7860227,62,2,-15.13671875,-33.203125,-21.97265625,-13.18359375,0.0,0
1586278682.789929,62,2,-18.06640625,-33.203125,-13.671875,-15.13671875,0.0,0
1586278682.7938352,62,2,-22.94921875,-38.57421875,-21.484375,-25.390625,0.0,0
1586278682.7977414,62,2,-25.390625,-36.1328125,-24.90234375,-23.92578125,0.0,0
1586278682.8016477,62,2,-18.5546875,-20.01953125,-14.6484375,-13.18359375,0.0,0
1586278682.805554,62,2,-6.34765625,-22.94921875,-30.2734375,5.37109375,0.0,0
1586278682.8094602,62,2,-11.71875,-31.25,-43.9453125,0.0,0.0,0
1586278682.8133664,62,2,-23.4375,-15.625,-16.6015625,-17.578125,0.0,0
1586278682.8172727,62,2,-15.625,-2.44140625,-1.46484375,-25.87890625,0.0,0
1586278682.821179,62,2,-13.18359375,-28.80859375,-25.390625,-26.3671875,0.0,0
1586278682.8250852,62,2,-22.4609375,-36.62109375,-36.1328125,-18.5546875,0.0,0
1586278682.8289914,62,2,-20.01953125,-20.99609375,-4.39453125,-18.5546875,0.0,0
1586278682.8328977,62,2,-13.18359375,-31.73828125,11.71875,-39.55078125,0.0,0
1586278682.836804,62,2,-20.5078125,-28.80859375,1.953125,-59.08203125,0.0,0
1586278682.8407102,62,2,-27.83203125,-30.2734375,-13.18359375,-42.96875,0.0,0
1586278682.8446164,62,2,-26.85546875,-30.76171875,-22.94921875,-17.08984375,0.0,0
1586278682.8485227,62,2,-26.3671875,-22.4609375,-2.44140625,-9.27734375,0.0,0
1586278682.852429,62,2,-23.4375,-19.53125,-11.71875,-17.578125,0.0,0
1586278682.8563352,62,2,-21.97265625,-16.6015625,-18.06640625,-20.5078125,0.0,0
1586278682.8602414,62,2,-18.5546875,-14.6484375,-13.18359375,-14.16015625,0.0,0
1586278682.8641477,62,2,-10.7421875,-45.8984375,-17.578125,-2.44140625,0.0,0
1586278682.868054,62,2,-12.20703125,-70.3125,-13.671875,-1.46484375,0.0,0
1586278682.8719602,62,2,-19.53125,-41.015625,-9.27734375,-21.97265625,0.0,0
1586278682.8758664,62,2,-21.484375,-11.23046875,14.16015625,-29.296875,0.0,0
1586278682.8797727,62,2,-11.71875,-12.20703125,-4.39453125,-23.4375,0.0,0
1586278682.883679,62,2,-0.9765625,-14.16015625,-20.01953125,-3.41796875,0.0,0
1586278682.8875852,62,2,-3.41796875,-24.90234375,-14.6484375,4.39453125,0.0,0
1586278682.8914914,62,2,-10.7421875,-40.0390625,-38.0859375,-20.99609375,0.0,0
1586278682.8953977,62,2,-17.08984375,-44.921875,-24.4140625,-31.25,0.0,0
1586278682.899304,62,2,-20.5078125,-48.33984375,-3.41796875,-12.6953125,0.0,0
1586278682.9032102,62,2,-24.4140625,-45.41015625,-30.2734375,4.8828125,0.0,0
1586278682.9071164,62,2,-21.484375,-36.1328125,-41.015625,9.27734375,0.0,0
1586278682.9110227,62,2,-24.4140625,-31.25,-10.7421875,-6.8359375,0.0,0
1586278682.914929,62,2,-30.76171875,-31.73828125,-4.8828125,-29.296875,0.0,0
1586278682.9188352,62,2,-32.2265625,-38.0859375,-20.5078125,-27.34375,0.0,0
1586278682.9227414,62,2,-24.90234375,-32.71484375,-8.30078125,-3.90625,0.0,0
1586278682.9266477,62,2,-12.20703125,-16.11328125,-10.25390625,14.16015625,0.0,0
1586278682.930554,62,2,-15.625,-33.203125,-9.765625,-3.90625,0.0,0
1586278682.9344602,62,2,-26.85546875,-47.8515625,-10.7421875,-25.390625,0.0,0
1586278682.9383664,62,2,-28.80859375,-43.9453125,-25.390625,-26.3671875,0.0,0
1586278682.9422727,62,2,-16.6015625,-39.0625,0.0,-10.25390625,0.0,0
1586278682.946179,62,2,-17.578125,-34.1796875,20.5078125,-0.48828125,0.0,0
1586278682.9500852,62,2,-30.76171875,-30.76171875,-17.08984375,-12.20703125,0.0,0
1586278682.9539914,62,2,-36.62109375,-27.83203125,-36.62109375,-30.2734375,0.0,0
1586278682.9578977,62,2,-31.73828125,-25.87890625,-12.20703125,-25.87890625,0.0,0
1586278682.961804,62,2,-21.484375,-30.2734375,1.46484375,-0.9765625,0.0,0
