timestamps,words,terms,TP9,AF7,AF8,TP10,Right AUX,Marker
1586282039.4460607,296,1,-29.78515625,-44.43359375,-53.22265625,-34.1796875,0.0,0
1586282039.449967,296,1,-16.11328125,-32.2265625,-47.8515625,-20.99609375,0.0,0
1586282039.4538732,296,1,-15.625,-19.53125,-33.69140625,-11.23046875,0.0,0
1586282039.4577794,296,1,-19.04296875,-18.5546875,-37.59765625,-10.7421875,0.0,0
1586282039.4616857,296,1,-24.4140625,-32.71484375,-51.7578125,-26.3671875,0.0,0
1586282039.465592,296,1,-27.34375,-37.109375,-49.31640625,-30.76171875,0.0,0
1586282039.4694982,296,1,-22.4609375,-29.296875,-39.0625,-20.01953125,0.0,0
1586282039.4734044,296,1,-17.08984375,-26.3671875,-41.50390625,-14.6484375,0.0,0
1586282039.4773107,296,1,-17.578125,-41.015625,-37.109375,-10.7421875,0.0,0
1586282039.481217,296,1,-17.578125,-38.57421875,-2.9296875,-7.32421875,0.0,0
1586282039.4851232,296,1,-27.34375,-25.390625,-15.13671875,-17.578125,0.0,0
1586282039.4890294,296,1,-27.83203125,-6.34765625,-43.9453125,-27.34375,0.0,0
1586282039.4929357,296,1,-17.08984375,-7.32421875,-30.2734375,-18.5546875,0.0,0
1586282039.496842,296,1,-3.41796875,-23.4375,-44.43359375,-17.08984375,0.0,0
1586282039.5007482,296,1,3.41796875,-24.90234375,-47.8515625,-24.4140625,0.0,0
1586282039.5046544,296,1,-17.578125,-35.15625,-50.29296875,-38.0859375,0.0,0
1586282039.5085607,296,1,-22.4609375,-33.69140625,-47.36328125,-32.2265625,0.0,0
1586282039.512467,296,1,-13.671875,-32.2265625,-31.25,-17.578125,0.0,0
1586282039.5163732,296,1,-6.8359375,-43.9453125,-32.2265625,-17.578125,0.0,0
1586282039.5202794,296,1,-13.671875,-24.90234375,-20.5078125,-19.53125,0.0,0
1586282039.5241857,296,1,-22.4609375,-4.8828125,-27.83203125,-20.01953125,0.0,0
1586282039.528092,296,1,-20.5078125,-5.859375,-40.52734375,-24.90234375,0.0,0
1586282039.5319982,296,1,-26.3671875,-26.85546875,-49.8046875,-24.4140625,0.0,0
1586282039.5359044,296,1,-29.78515625,-41.9921875,-46.38671875,-18.5546875,0.0,0
1586282039.5398107,296,1,-21.484375,-36.62109375,-31.25,-15.625,0.0,0
1586282039.543717,296,1,-32.2265625,-26.3671875,-28.3203125,-30.76171875,0.0,0
1586282039.5476232,296,1,-34.1796875,-16.6015625,-28.3203125,-37.109375,0.0,0
1586282039.5515294,296,1,-17.578125,-27.83203125,-31.25,-27.83203125,0.0,0
1586282039.5554357,296,1,-7.32421875,-39.55078125,-33.203125,-18.5546875,0.0,0
1586282039.559342,296,1,-11.23046875,-48.828125,-20.5078125,-10.25390625,0.0,0
1586282039.5632482,296,1,-25.390625,-67.3828125,-21.484375,-26.3671875,0.0,0
1586282039.5671544,296,1,-32.71484375,-32.2265625,-48.33984375,-35.64453125,0.0,0
1586282039.5710607,296,1,-31.25,-13.671875,-29.296875,-10.7421875,0.0,0
1586282039.574967,296,1,-21.484375,-28.80859375,-7.32421875,-9.27734375,0.0,0
1586282039.5788732,296,1,-25.390625,-30.2734375,-12.6953125,-21.484375,0.0,0
1586282039.5827794,296,1,-39.55078125,-31.25,-30.76171875,-25.390625,0.0,0
1586282039.5866857,296,1,-30.76171875,-31.73828125,-42.96875,-28.80859375,0.0,0
1586282039.590592,296,1,-26.3671875,-56.640625,-33.203125,-31.25,0.0,0
1586282039.5944982,296,1,-32.2265625,-65.4296875,-31.25,-30.76171875,0.0,0
1586282039.5984044,296,1,-24.4140625,-34.1796875,-38.57421875,-22.4609375,0.0,0
1586282039.6023107,296,1,-23.92578125,-14.16015625,-29.78515625,-14.16015625,0.0,0
1586282039.606217,296,1,-28.3203125,-2.44140625,-26.85546875,-25.87890625,0.0,0
1586282039.6101232,296,1,-15.13671875,-4.39453125,-28.3203125,-32.2265625,0.0,0
1586282039.6140294,296,1,-5.37109375,-20.01953125,-28.3203125,-10.7421875,0.0,0
1586282039.6179357,296,1,-10.7421875,-19.53125,-39.0625,-12.20703125,0.0,0
1586282039.621842,296,1,-22.4609375,-40.0390625,-40.0390625,-28.80859375,0.0,0
1586282039.6257482,296,1,-34.66796875,-51.26953125,-39.0625,-28.3203125,0.0,0
1586282039.6296544,296,1,-30.76171875,-23.4375,-39.0625,-18.5546875,0.0,0
1586282039.6335607,296,1,-23.4375,-13.671875,-33.69140625,-12.6953125,0.0,0
1586282039.637467,296,1,-29.296875,-17.08984375,-29.78515625,-16.11328125,0.0,0
1586282039.6413732,296,1,-22.94921875,-17.578125,-27.34375,-21.484375,0.0,0
1586282039.6452794,296,1,-23.92578125,-23.92578125,-28.3203125,-28.80859375,0.0,0
1586282039.6491857,296,1,-28.3203125,-26.85546875,-39.0625,-28.80859375,0.0,0
1586282039.653092,296,1,-26.3671875,-32.2265625,-41.9921875,-22.4609375,0.0,0
1586282039.6569982,296,1,-36.1328125,-32.71484375,-24.4140625,-18.06640625,0.0,0
1586282039.6609044,296,1,-31.73828125,-34.1796875,-24.4140625,-25.390625,0.0,0
1586282039.6648107,296,1,-22.94921875,-34.66796875,-36.62109375,-27.83203125,0.0,0
1586282039.668717,296,1,-30.76171875,-37.109375,-36.1328125,-28.3203125,0.0,0
1586282039.6726232,296,1,-22.94921875,-32.2265625,-37.59765625,-27.34375,0.0,0
1586282039.6765294,296,1,-11.71875,-20.99609375,-37.109375,-11.71875,0.0,0
1586282039.6804357,296,1,-33.69140625,-34.1796875,-40.52734375,-23.4375,0.0,0
1586282039.684342,296,1,-41.9921875,-38.0859375,-34.66796875,-23.4375,0.0,0
1586282039.6882482,296,1,-31.73828125,-35.15625,-38.57421875,-14.16015625,0.0,0
1586282039.6921544,296,1,-20.01953125,-58.10546875,-41.50390625,-10.7421875,0.0,0
1586282039.6960607,296,1,-5.37109375,-60.05859375,-34.66796875,14.16015625,0.0,0
1586282039.699967,296,1,-4.8828125,-49.8046875,-31.25,19.53125,0.0,0
1586282039.7038732,296,1,-13.18359375,-49.31640625,-24.90234375,7.32421875,0.0,0
1586282039.7077794,296,1,-10.25390625,-52.24609375,-30.2734375,0.0,0.0,0
1586282039.7116857,296,1,-3.90625,-61.03515625,-41.015625,-4.8828125,0.0,0
1586282039.715592,296,1,-2.44140625,-52.734375,-39.55078125,0.9765625,0.0,0
1586282039.7194982,296,1,-1.953125,-30.76171875,-30.76171875,0.9765625,0.0,0
1586282039.7234044,296,1,-9.765625,-17.08984375,-42.96875,2.9296875,0.0,0
1586282039.7273107,296,1,-23.92578125,-29.78515625,-60.05859375,-11.23046875,0.0,0
1586282039.731217,296,1,-19.04296875,-42.48046875,-44.43359375,-20.01953125,0.0,0
1586282039.7351232,296,1,-9.765625,-34.1796875,-47.36328125,-3.90625,0.0,0
1586282039.7390294,296,1,-18.06640625,-32.2265625,-48.33984375,1.46484375,0.0,0
1586282039.7429357,296,1,-20.99609375,-41.50390625,-25.87890625,-2.44140625,0.0,0
1586282039.746842,296,1,-25.87890625,-47.36328125,-23.92578125,-13.671875,0.0,0
1586282039.7507482,296,1,-11.23046875,-32.71484375,-41.50390625,-4.8828125,0.0,0
1586282039.7546544,296,1,6.8359375,-23.92578125,-51.7578125,11.23046875,0.0,0
1586282039.7585607,296,1,3.41796875,-18.5546875,-33.69140625,8.7890625,0.0,0
1586282039.762467,296,1,-7.32421875,-12.20703125,-25.390625,0.0,0.0,0
1586282039.7663732,296,1,-19.04296875,-28.3203125,-32.2265625,-9.765625,0.0,0
1586282039.7702794,296,1,-14.16015625,-33.69140625,-25.390625,-11.23046875,0.0,0
1586282039.7741857,296,1,-7.32421875,-31.25,-27.83203125,-8.7890625,0.0,0
1586282039.778092,296,1,-3.90625,-62.5,-37.109375,-3.90625,0.0,0
1586282039.7819982,296,1,-15.625,-61.5234375,-41.9921875,-20.5078125,0.0,0
1586282039.7859044,296,1,-12.20703125,-21.484375,-38.0859375,-14.6484375,0.0,0
1586282039.7898107,296,1,-9.27734375,-10.7421875,-35.64453125,0.9765625,0.0,0
1586282039.793717,296,1,-10.7421875,-29.296875,-27.83203125,4.8828125,0.0,0
1586282039.7976232,296,1,-10.7421875,-29.78515625,-21.97265625,5.37109375,0.0,0
1586282039.8015294,296,1,-13.671875,-14.16015625,-28.80859375,-0.9765625,0.0,0
1586282039.8054357,296,1,-15.625,-19.53125,-26.85546875,-8.30078125,0.0,0
1586282039.809342,296,1,-18.06640625,-39.0625,-36.62109375,-15.625,0.0,0
1586282039.8132482,296,1,-2.9296875,-27.34375,-54.6875,-6.34765625,0.0,0
1586282039.8171544,296,1,5.859375,-33.203125,-47.36328125,-3.90625,0.0,0
1586282039.8210607,296,1,-16.11328125,-53.7109375,-32.2265625,-8.30078125,0.0,0
1586282039.824967,296,1,-28.80859375,-38.57421875,-20.99609375,0.9765625,0.0,0
1586282039.8288732,296,1,-20.5078125,-18.06640625,-22.4609375,-4.39453125,0.0,0
1586282039.8327794,296,1,-12.6953125,-13.18359375,-28.80859375,-13.18359375,0.0,0
1586282039.8366857,296,1,-13.671875,-29.296875,-41.50390625,-16.6015625,0.0,0
1586282039.840592,296,1,-8.30078125,-32.2265625,-33.203125,-14.16015625,0.0,0
1586282039.8444982,296,1,-14.6484375,-27.34375,-11.23046875,-21.484375,0.0,0
1586282039.8484044,296,1,-34.1796875,-32.2265625,-19.04296875,-32.2265625,0.0,0
1586282039.8523107,296,1,-25.87890625,-35.15625,-17.08984375,-19.04296875,0.0,0
1586282039.856217,296,1,-21.97265625,-50.78125,-20.01953125,-8.30078125,0.0,0
1586282039.8601232,296,1,-25.87890625,-30.76171875,-39.0625,-15.625,0.0,0
1586282039.8640294,296,1,-20.01953125,-10.25390625,-56.640625,-18.06640625,0.0,0
1586282039.8679357,296,1,-11.71875,-22.94921875,-35.15625,-11.23046875,0.0,0
1586282039.871842,296,1,-17.578125,-32.2265625,-25.87890625,-6.8359375,0.0,0
1586282039.8757482,296,1,-29.78515625,-33.69140625,-31.73828125,-1.46484375,0.0,0
1586282039.8796544,296,1,-22.4609375,-19.04296875,-27.83203125,-5.37109375,0.0,0
1586282039.8835607,296,1,-16.11328125,-31.25,-21.97265625,-22.94921875,0.0,0
1586282039.887467,296,1,-19.53125,-56.15234375,-13.18359375,-25.87890625,0.0,0
1586282039.8913732,296,1,-21.97265625,-41.9921875,-27.83203125,-11.23046875,0.0,0
1586282039.8952794,296,1,-21.484375,-20.5078125,-45.8984375,-10.25390625,0.0,0
1586282039.8991857,296,1,-23.4375,-15.13671875,-37.109375,-12.20703125,0.0,0
1586282039.903092,296,1,-28.80859375,-21.97265625,-25.87890625,-13.18359375,0.0,0
1586282039.9069982,296,1,-31.73828125,-34.66796875,-19.53125,-25.390625,0.0,0
1586282039.9109044,296,1,-21.484375,-35.64453125,-16.11328125,-20.5078125,0.0,0
1586282039.9148107,296,1,-8.30078125,-38.0859375,-21.484375,-2.9296875,0.0,0
1586282039.918717,296,1,-6.34765625,-60.05859375,-30.2734375,-7.8125,0.0,0
1586282039.9226232,296,1,-11.23046875,-50.78125,-25.87890625,-20.5078125,0.0,0
1586282039.9265294,296,1,-24.90234375,-11.71875,-20.5078125,-19.04296875,0.0,0
1586282039.9304357,296,1,-27.83203125,-2.44140625,-34.66796875,-20.5078125,0.0,0
1586282039.934342,296,1,-11.23046875,-20.5078125,-33.69140625,-6.8359375,0.0,0
1586282039.9382482,296,1,-6.8359375,-35.15625,-16.6015625,0.0,0.0,0
1586282039.9421544,296,1,-23.4375,-29.296875,-7.32421875,-18.06640625,0.0,0
1586282039.9460607,296,1,-31.73828125,-29.78515625,-19.04296875,-32.2265625,0.0,0
1586282039.949967,296,1,-24.90234375,-46.875,-25.390625,-21.484375,0.0,0
1586282039.9538732,296,1,-18.06640625,-38.0859375,-16.6015625,-2.9296875,0.0,0
1586282039.9577794,296,1,-23.4375,-33.69140625,-31.73828125,-10.25390625,0.0,0
1586282039.9616857,296,1,-29.78515625,-51.7578125,-54.19921875,-20.99609375,0.0,0
1586282039.965592,296,1,-29.78515625,-36.62109375,-49.8046875,-21.484375,0.0,0
1586282039.9694982,296,1,-23.92578125,-25.390625,-37.59765625,-19.53125,0.0,0
1586282039.9734044,296,1,-4.8828125,-37.59765625,-31.73828125,-11.23046875,0.0,0
1586282039.9773107,296,1,-0.9765625,-28.80859375,-23.92578125,-3.90625,0.0,0
1586282039.981217,296,1,-23.4375,-35.64453125,-34.66796875,-19.04296875,0.0,0
1586282039.9851232,296,1,-30.76171875,-51.7578125,-19.53125,-29.296875,0.0,0
1586282039.9890294,296,1,-20.01953125,-50.78125,-7.8125,-17.08984375,0.0,0
1586282039.9929357,296,1,-19.53125,-49.31640625,-35.15625,-18.5546875,0.0,0
1586282039.996842,296,1,-18.06640625,-38.57421875,-39.55078125,-35.64453125,0.0,0
1586282040.0007482,296,1,-15.625,-16.6015625,-36.62109375,-35.64453125,0.0,0
1586282040.0046544,296,1,-19.04296875,-9.27734375,-34.66796875,-27.34375,0.0,0
1586282040.0085607,296,1,-24.90234375,-22.94921875,-45.8984375,-23.4375,0.0,0
1586282040.012467,296,1,-35.64453125,-22.4609375,-39.55078125,-14.6484375,0.0,0
1586282040.0163732,296,1,-18.06640625,-25.390625,-42.48046875,-11.71875,0.0,0
1586282040.0202794,296,1,-21.97265625,-51.7578125,-58.10546875,-24.90234375,0.0,0
1586282040.0241857,296,1,-29.78515625,-40.52734375,-38.0859375,-20.01953125,0.0,0
1586282040.028092,296,1,-26.85546875,-20.5078125,-28.80859375,-22.94921875,0.0,0
1586282040.0319982,296,1,-24.90234375,-28.80859375,-29.78515625,-33.69140625,0.0,0
1586282040.0359044,296,1,-18.06640625,-41.9921875,-27.83203125,-19.53125,0.0,0
1586282040.0398107,296,1,-21.97265625,-42.96875,-25.87890625,3.90625,0.0,0
1586282040.043717,296,1,-30.2734375,-30.2734375,-31.25,-3.41796875,0.0,0
1586282040.0476232,296,1,-32.71484375,-25.390625,-20.99609375,-19.53125,0.0,0
1586282040.0515294,296,1,-17.578125,-32.2265625,-16.6015625,-18.5546875,0.0,0
1586282040.0554357,296,1,-16.6015625,-34.1796875,-38.57421875,-18.06640625,0.0,0
1586282040.059342,296,1,-22.4609375,-28.3203125,-50.29296875,-25.390625,0.0,0
1586282040.0632482,296,1,-20.01953125,-20.5078125,-36.62109375,-19.04296875,0.0,0
1586282040.0671544,296,1,-24.90234375,-37.59765625,-21.97265625,-26.85546875,0.0,0
1586282040.0710607,296,1,-27.34375,-40.52734375,-30.76171875,-43.9453125,0.0,0
1586282040.074967,296,1,-20.01953125,-13.671875,-27.34375,-34.66796875,0.0,0
1586282040.0788732,296,1,-23.92578125,-7.32421875,-34.66796875,-29.78515625,0.0,0
1586282040.0827794,296,1,-22.4609375,-14.16015625,-46.38671875,-21.97265625,0.0,0
1586282040.0866857,296,1,-21.484375,-23.4375,-34.66796875,-34.1796875,0.0,0
1586282040.090592,296,1,-21.484375,-48.828125,-21.97265625,-32.71484375,0.0,0
1586282040.0944982,296,1,-9.765625,-48.828125,-30.2734375,-15.625,0.0,0
1586282040.0984044,296,1,-12.6953125,-21.97265625,-38.0859375,-12.6953125,0.0,0
1586282040.1023107,296,1,-33.69140625,-27.83203125,-46.38671875,-23.92578125,0.0,0
1586282040.106217,296,1,-37.59765625,-32.2265625,-50.78125,-28.3203125,0.0,0
1586282040.1101232,296,1,-17.08984375,-37.59765625,-37.109375,-14.6484375,0.0,0
1586282040.1140294,296,1,-2.44140625,-37.59765625,-26.3671875,-5.859375,0.0,0
1586282040.1179357,296,1,-5.37109375,-18.06640625,-16.11328125,-9.765625,0.0,0
1586282040.121842,296,1,-23.4375,-21.484375,-29.296875,-6.34765625,0.0,0
1586282040.1257482,296,1,-23.92578125,-31.25,-44.43359375,0.0,0.0,0
1586282040.1296544,296,1,-15.13671875,-36.62109375,-59.08203125,-4.8828125,0.0,0
1586282040.1335607,296,1,-8.7890625,-41.015625,-52.24609375,-15.13671875,0.0,0
1586282040.137467,296,1,-11.23046875,-43.9453125,-37.59765625,-13.671875,0.0,0
1586282040.1413732,296,1,-4.39453125,-28.80859375,-34.66796875,-2.44140625,0.0,0
1586282040.1452794,296,1,-6.34765625,-11.23046875,-21.97265625,-17.08984375,0.0,0
1586282040.1491857,296,1,-22.94921875,-26.3671875,-15.13671875,-28.3203125,0.0,0
1586282040.153092,296,1,-13.18359375,-24.4140625,-22.94921875,-15.13671875,0.0,0
1586282040.1569982,296,1,-11.23046875,-18.5546875,-40.52734375,-6.8359375,0.0,0
1586282040.1609044,296,1,-26.85546875,-30.76171875,-35.15625,-23.4375,0.0,0
1586282040.1648107,296,1,-33.203125,-40.0390625,-18.5546875,-32.71484375,0.0,0
1586282040.168717,296,1,-22.94921875,-28.80859375,-28.3203125,-29.78515625,0.0,0
1586282040.1726232,296,1,-13.18359375,-12.6953125,-42.48046875,-22.4609375,0.0,0
1586282040.1765294,296,1,-8.30078125,-13.671875,-39.55078125,-11.71875,0.0,0
1586282040.1804357,296,1,-15.13671875,-32.71484375,-32.71484375,-14.6484375,0.0,0
1586282040.184342,296,1,-20.01953125,-31.73828125,-33.69140625,-17.08984375,0.0,0
1586282040.1882482,296,1,-10.25390625,-22.4609375,-48.33984375,-22.94921875,0.0,0
1586282040.1921544,296,1,-16.11328125,-26.3671875,-46.875,-16.11328125,0.0,0
1586282040.1960607,296,1,-20.99609375,-36.62109375,-22.4609375,3.41796875,0.0,0
1586282040.199967,296,1,-17.08984375,-34.66796875,-3.41796875,-11.23046875,0.0,0
1586282040.2038732,296,1,-39.55078125,-37.109375,-10.7421875,-49.31640625,0.0,0
1586282040.2077794,296,1,-51.7578125,-40.0390625,-27.34375,-42.48046875,0.0,0
1586282040.2116857,296,1,-18.06640625,-25.87890625,-46.875,-11.23046875,0.0,0
1586282040.215592,296,1,3.41796875,-20.5078125,-42.48046875,-3.90625,0.0,0
1586282040.2194982,296,1,-5.37109375,-34.1796875,-34.1796875,-18.06640625,0.0,0
1586282040.2234044,296,1,-13.671875,-36.62109375,-28.80859375,-17.08984375,0.0,0
1586282040.2273107,296,1,-13.671875,-29.296875,-22.4609375,-20.99609375,0.0,0
1586282040.231217,296,1,-9.765625,-20.99609375,-33.203125,-20.01953125,0.0,0
1586282040.2351232,296,1,-8.7890625,-6.34765625,-46.875,-14.16015625,0.0,0
1586282040.2390294,296,1,-11.71875,-15.13671875,-37.59765625,-20.01953125,0.0,0
1586282040.2429357,296,1,-17.08984375,-37.109375,-32.2265625,-23.92578125,0.0,0
1586282040.246842,296,1,-19.04296875,-25.390625,-20.01953125,-10.25390625,0.0,0
1586282040.2507482,296,1,-19.53125,-29.296875,-20.01953125,-13.18359375,0.0,0
1586282040.2546544,296,1,-9.765625,-25.390625,-31.73828125,-14.6484375,0.0,0
1586282040.2585607,296,1,-4.8828125,-9.765625,-36.1328125,-2.9296875,0.0,0
1586282040.262467,296,1,-19.04296875,-40.52734375,-47.36328125,-7.8125,0.0,0
1586282040.2663732,296,1,-21.97265625,-35.15625,-46.875,-18.06640625,0.0,0
1586282040.2702794,296,1,-11.23046875,-8.30078125,-37.109375,-31.73828125,0.0,0
1586282040.2741857,296,1,-7.32421875,-16.11328125,-16.6015625,-22.4609375,0.0,0
1586282040.278092,296,1,-11.23046875,-37.109375,-10.7421875,-12.20703125,0.0,0
1586282040.2819982,296,1,-16.11328125,-34.1796875,-19.04296875,-16.6015625,0.0,0
1586282040.2859044,296,1,-20.5078125,-13.18359375,-25.87890625,-9.27734375,0.0,0
1586282040.2898107,296,1,-20.01953125,-20.01953125,-32.2265625,-12.20703125,0.0,0
1586282040.293717,296,1,-15.13671875,-41.50390625,-32.71484375,-5.37109375,0.0,0
1586282040.2976232,296,1,-1.953125,-40.0390625,-38.0859375,4.8828125,0.0,0
1586282040.3015294,296,1,-1.953125,-13.18359375,-27.34375,1.953125,0.0,0
1586282040.3054357,296,1,-7.8125,-6.34765625,-18.5546875,-8.30078125,0.0,0
1586282040.309342,296,1,-19.53125,-26.85546875,-39.0625,-2.9296875,0.0,0
1586282040.3132482,296,1,-4.39453125,-33.69140625,-48.33984375,0.9765625,0.0,0
1586282040.3171544,296,1,13.671875,-22.94921875,-26.3671875,-8.30078125,0.0,0
1586282040.3210607,296,1,3.90625,-36.62109375,-25.87890625,-13.18359375,0.0,0
1586282040.324967,296,1,-8.30078125,-43.45703125,-47.36328125,-19.04296875,0.0,0
1586282040.3288732,296,1,-17.08984375,-5.859375,-37.59765625,-29.78515625,0.0,0
1586282040.3327794,296,1,-10.25390625,-2.44140625,-29.296875,-31.25,0.0,0
1586282040.3366857,296,1,-7.32421875,-26.3671875,-33.69140625,-24.4140625,0.0,0
1586282040.340592,296,1,-14.6484375,-24.90234375,-43.45703125,-27.34375,0.0,0
1586282040.3444982,296,1,-17.08984375,-20.5078125,-40.0390625,-36.1328125,0.0,0
1586282040.3484044,296,1,-24.90234375,-27.83203125,-35.15625,-31.25,0.0,0
1586282040.3523107,296,1,-18.06640625,-24.90234375,-42.48046875,-22.94921875,0.0,0
1586282040.356217,296,1,-5.859375,-14.16015625,-55.6640625,-20.01953125,0.0,0
1586282040.3601232,296,1,-16.11328125,-21.484375,-66.89453125,-29.78515625,0.0,0
1586282040.3640294,296,1,-27.34375,-41.50390625,-41.50390625,-36.1328125,0.0,0
1586282040.3679357,296,1,-28.3203125,-48.33984375,-19.53125,-27.34375,0.0,0
1586282040.371842,296,1,-22.94921875,-18.5546875,-21.97265625,-24.90234375,0.0,0
1586282040.3757482,296,1,-20.01953125,-9.27734375,-46.38671875,-23.92578125,0.0,0
1586282040.3796544,296,1,-9.765625,-24.90234375,-38.57421875,-13.671875,0.0,0
1586282040.3835607,296,1,-14.16015625,-48.33984375,-25.390625,-17.578125,0.0,0
1586282040.387467,296,1,-30.2734375,-45.41015625,-27.83203125,-27.83203125,0.0,0
1586282040.3913732,296,1,-15.13671875,-12.20703125,-30.76171875,-30.2734375,0.0,0
1586282040.3952794,296,1,-6.8359375,-13.671875,-46.38671875,-23.92578125,0.0,0
1586282040.3991857,296,1,-32.2265625,-28.3203125,-45.8984375,-11.23046875,0.0,0
1586282040.403092,296,1,-30.76171875,-14.6484375,-22.4609375,-10.7421875,0.0,0
1586282040.4069982,296,1,-18.06640625,-10.25390625,-26.85546875,-17.578125,0.0,0
1586282040.4109044,296,1,-8.7890625,-25.87890625,-45.41015625,-4.39453125,0.0,0
1586282040.4148107,296,1,-0.9765625,-16.6015625,-38.0859375,-1.953125,0.0,0
1586282040.418717,296,1,-7.32421875,-15.13671875,-16.6015625,-8.7890625,0.0,0
1586282040.4226232,296,1,-14.16015625,-23.4375,-13.18359375,-21.484375,0.0,0
1586282040.4265294,296,1,-16.6015625,-17.578125,-35.15625,-16.11328125,0.0,0
1586282040.4304357,296,1,-22.94921875,-37.109375,-44.921875,-20.01953125,0.0,0
1586282040.434342,296,1,-18.06640625,-39.55078125,-31.73828125,-29.78515625,0.0,0
1586282040.4382482,296,1,-11.23046875,-28.80859375,-14.16015625,-9.765625,0.0,0
1586282040.4421544,296,1,-19.53125,-36.1328125,-9.27734375,-13.671875,0.0,0
1586282040.4460607,296,1,-24.90234375,-30.76171875,-6.8359375,-20.5078125,0.0,0
1586282040.449967,296,1,-25.390625,-21.484375,-4.8828125,-19.53125,0.0,0
1586282040.4538732,296,1,-18.06640625,-39.0625,-20.5078125,-20.01953125,0.0,0
1586282040.4577794,296,1,-10.7421875,-40.52734375,-40.52734375,-11.71875,0.0,0
1586282040.4616857,296,1,-8.7890625,-20.01953125,-50.29296875,-17.08984375,0.0,0
1586282040.465592,296,1,-17.578125,-23.4375,-57.6171875,-23.92578125,0.0,0
1586282040.4694982,296,1,-25.390625,-46.38671875,-51.26953125,-30.76171875,0.0,0
1586282040.4734044,296,1,-13.18359375,-33.69140625,-18.06640625,-16.6015625,0.0,0
1586282040.4773107,296,1,-0.9765625,-13.18359375,-13.18359375,-2.44140625,0.0,0
1586282040.481217,296,1,-10.7421875,-10.25390625,-20.99609375,-14.16015625,0.0,0
1586282040.4851232,296,1,-28.3203125,-8.7890625,-33.203125,-22.4609375,0.0,0
1586282040.4890294,296,1,-25.87890625,-11.71875,-47.8515625,-28.3203125,0.0,0
1586282040.4929357,296,1,-20.5078125,-31.73828125,-37.59765625,-27.83203125,0.0,0
1586282040.496842,296,1,-11.23046875,-37.59765625,-29.78515625,-15.13671875,0.0,0
1586282040.5007482,296,1,-10.25390625,-24.90234375,-36.62109375,-6.8359375,0.0,0
1586282040.5046544,296,1,-23.92578125,-28.80859375,-43.45703125,-28.80859375,0.0,0
1586282040.5085607,296,1,-25.390625,-45.41015625,-45.8984375,-53.22265625,0.0,0
1586282040.512467,296,1,-13.671875,-33.69140625,-39.0625,-30.2734375,0.0,0
1586282040.5163732,296,1,-19.04296875,-9.27734375,-43.9453125,-19.04296875,0.0,0
1586282040.5202794,296,1,-23.92578125,-15.625,-40.52734375,-21.484375,0.0,0
1586282040.5241857,296,1,-25.87890625,-18.06640625,-23.4375,-23.92578125,0.0,0
1586282040.528092,296,1,-28.3203125,-22.4609375,-30.2734375,-35.15625,0.0,0
1586282040.5319982,296,1,-19.53125,-20.99609375,-34.1796875,-36.1328125,0.0,0
1586282040.5359044,296,1,-14.6484375,-31.73828125,-36.1328125,-12.6953125,0.0,0
1586282040.5398107,296,1,-18.06640625,-34.1796875,-45.8984375,-4.8828125,0.0,0
1586282040.543717,296,1,-16.11328125,-16.6015625,-32.2265625,-11.71875,0.0,0
1586282040.5476232,296,1,-11.71875,-27.34375,-25.87890625,-5.37109375,0.0,0
1586282040.5515294,296,1,-15.625,-13.671875,-28.80859375,-14.16015625,0.0,0
1586282040.5554357,296,1,-15.625,2.9296875,-34.66796875,-14.6484375,0.0,0
1586282040.559342,296,1,-14.6484375,-23.4375,-47.8515625,-1.953125,0.0,0
1586282040.5632482,296,1,-38.0859375,-32.2265625,-38.57421875,-28.80859375,0.0,0
1586282040.5671544,296,1,-45.8984375,-35.15625,-25.87890625,-46.38671875,0.0,0
1586282040.5710607,296,1,-30.2734375,-48.33984375,-26.3671875,-30.2734375,0.0,0
1586282040.574967,296,1,-16.11328125,-41.50390625,-44.921875,-17.08984375,0.0,0
1586282040.5788732,296,1,-15.625,-28.80859375,-46.38671875,-11.71875,0.0,0
1586282040.5827794,296,1,-28.3203125,-17.578125,-21.484375,-11.23046875,0.0,0
1586282040.5866857,296,1,-23.92578125,-9.27734375,-26.85546875,-17.08984375,0.0,0
1586282040.590592,296,1,-12.6953125,-11.71875,-26.3671875,-25.390625,0.0,0
1586282040.5944982,296,1,-11.23046875,-28.80859375,-28.80859375,-25.390625,0.0,0
1586282040.5984044,296,1,-8.30078125,-32.2265625,-40.52734375,-21.97265625,0.0,0
1586282040.6023107,296,1,-12.6953125,-30.2734375,-20.5078125,-20.01953125,0.0,0
1586282040.606217,296,1,-23.4375,-50.29296875,-9.27734375,-12.6953125,0.0,0
1586282040.6101232,296,1,-14.6484375,-33.203125,-21.484375,-10.25390625,0.0,0
1586282040.6140294,296,1,-8.7890625,-5.37109375,-22.94921875,-11.71875,0.0,0
1586282040.6179357,296,1,-25.390625,-13.671875,-32.71484375,-6.34765625,0.0,0
1586282040.621842,296,1,-40.0390625,-26.3671875,-69.3359375,-15.625,0.0,0
1586282040.6257482,296,1,-39.0625,-37.59765625,-62.01171875,-28.80859375,0.0,0
1586282040.6296544,296,1,-29.78515625,-37.109375,-21.97265625,-20.99609375,0.0,0
1586282040.6335607,296,1,-17.08984375,-19.04296875,-18.5546875,-7.8125,0.0,0
1586282040.637467,296,1,-15.625,-12.6953125,-27.34375,-9.27734375,0.0,0
1586282040.6413732,296,1,-15.625,-21.97265625,-35.64453125,-4.8828125,0.0,0
1586282040.6452794,296,1,-20.99609375,-41.015625,-28.3203125,-8.7890625,0.0,0
1586282040.6491857,296,1,-28.80859375,-58.59375,-21.484375,-20.5078125,0.0,0
1586282040.653092,296,1,-22.4609375,-35.64453125,-42.48046875,-18.5546875,0.0,0
1586282040.6569982,296,1,-14.16015625,-18.06640625,-33.203125,-14.16015625,0.0,0
1586282040.6609044,296,1,-22.4609375,-23.92578125,-17.08984375,-24.4140625,0.0,0
1586282040.6648107,296,1,-33.203125,-16.6015625,-32.71484375,-25.390625,0.0,0
1586282040.668717,296,1,-34.66796875,-23.92578125,-54.19921875,-37.109375,0.0,0
1586282040.6726232,296,1,-26.85546875,-19.04296875,-42.96875,-29.296875,0.0,0
1586282040.6765294,296,1,-20.5078125,-14.16015625,-10.25390625,-12.6953125,0.0,0
1586282040.6804357,296,1,-23.92578125,-34.66796875,-6.8359375,-21.97265625,0.0,0
1586282040.684342,296,1,-41.015625,-50.78125,-39.0625,-35.64453125,0.0,0
1586282040.6882482,296,1,-39.55078125,-43.45703125,-32.71484375,-37.109375,0.0,0
1586282040.6921544,296,1,-26.85546875,-23.92578125,-24.4140625,-36.62109375,0.0,0
1586282040.6960607,296,1,-25.390625,-23.92578125,-33.203125,-35.15625,0.0,0
1586282040.699967,296,1,-29.296875,-36.1328125,-41.9921875,-29.78515625,0.0,0
1586282040.7038732,296,1,-34.66796875,-31.73828125,-41.9921875,-29.78515625,0.0,0
1586282040.7077794,296,1,-42.96875,-18.5546875,-29.78515625,-31.25,0.0,0
1586282040.7116857,296,1,-45.8984375,-32.2265625,-27.34375,-30.2734375,0.0,0
1586282040.715592,296,1,-23.92578125,-51.26953125,-39.0625,-16.11328125,0.0,0
1586282040.7194982,296,1,-4.39453125,-39.0625,-53.22265625,0.48828125,0.0,0
1586282040.7234044,296,1,-30.2734375,-35.15625,-47.36328125,-18.5546875,0.0,0
1586282040.7273107,296,1,-46.875,-41.015625,-32.71484375,-38.0859375,0.0,0
1586282040.731217,296,1,-34.1796875,-23.4375,-19.53125,-34.66796875,0.0,0
1586282040.7351232,296,1,-27.34375,-9.765625,-16.6015625,-27.83203125,0.0,0
1586282040.7390294,296,1,-36.62109375,-35.15625,-27.34375,-30.76171875,0.0,0
1586282040.7429357,296,1,-36.1328125,-42.96875,-23.92578125,-34.1796875,0.0,0
1586282040.746842,296,1,-34.1796875,-12.6953125,-19.53125,-34.66796875,0.0,0
1586282040.7507482,296,1,-35.15625,-5.859375,-28.3203125,-25.390625,0.0,0
1586282040.7546544,296,1,-28.3203125,-25.390625,-44.921875,-9.765625,0.0,0
1586282040.7585607,296,1,-21.484375,-44.43359375,-56.640625,-9.27734375,0.0,0
1586282040.762467,296,1,-22.94921875,-39.55078125,-45.41015625,-20.99609375,0.0,0
1586282040.7663732,296,1,-32.2265625,-31.73828125,-24.90234375,-30.76171875,0.0,0
1586282040.7702794,296,1,-30.2734375,-26.3671875,-11.23046875,-39.0625,0.0,0
1586282040.7741857,296,1,-20.01953125,-17.08984375,-16.11328125,-28.80859375,0.0,0
1586282040.778092,296,1,-18.06640625,-11.71875,-20.5078125,-16.6015625,0.0,0
1586282040.7819982,296,1,-20.5078125,-17.578125,-26.3671875,-18.06640625,0.0,0
1586282040.7859044,296,1,-23.4375,-21.97265625,-41.50390625,-17.578125,0.0,0
1586282040.7898107,296,1,-20.01953125,-36.1328125,-27.83203125,-17.08984375,0.0,0
1586282040.793717,296,1,-10.7421875,-43.45703125,-28.80859375,-16.6015625,0.0,0
1586282040.7976232,296,1,-9.765625,-31.25,-37.59765625,-11.71875,0.0,0
1586282040.8015294,296,1,-14.6484375,-16.6015625,-41.50390625,-13.18359375,0.0,0
1586282040.8054357,296,1,-19.04296875,-25.87890625,-27.34375,-21.484375,0.0,0
1586282040.809342,296,1,-18.5546875,-24.90234375,-0.9765625,-25.87890625,0.0,0
1586282040.8132482,296,1,-19.53125,-20.99609375,-27.34375,-24.4140625,0.0,0
1586282040.8171544,296,1,-17.578125,-18.06640625,-59.5703125,-20.99609375,0.0,0
1586282040.8210607,296,1,-19.53125,-13.671875,-56.640625,-12.6953125,0.0,0
1586282040.824967,296,1,-18.5546875,-19.04296875,-48.828125,-14.16015625,0.0,0
1586282040.8288732,296,1,-12.6953125,-16.11328125,-36.62109375,-15.625,0.0,0
1586282040.8327794,296,1,-5.37109375,-23.92578125,-20.5078125,-0.9765625,0.0,0
1586282040.8366857,296,1,-11.71875,-42.96875,-30.2734375,-5.859375,0.0,0
1586282040.840592,296,1,-22.94921875,-45.8984375,-30.76171875,-12.20703125,0.0,0
1586282040.8444982,296,1,-26.3671875,-22.94921875,-15.625,-3.90625,0.0,0
1586282040.8484044,296,1,-25.87890625,-20.5078125,-16.11328125,-11.71875,0.0,0
1586282040.8523107,296,1,-20.5078125,-26.3671875,-30.2734375,-19.04296875,0.0,0
1586282040.856217,296,1,-15.13671875,-3.90625,-35.64453125,-17.578125,0.0,0
1586282040.8601232,296,1,-21.484375,-29.296875,-34.1796875,-17.578125,0.0,0
1586282040.8640294,296,1,-30.2734375,-49.8046875,-31.25,-18.06640625,0.0,0
1586282040.8679357,296,1,-29.78515625,-28.3203125,-32.2265625,-15.13671875,0.0,0
1586282040.871842,296,1,-28.3203125,-27.34375,-58.59375,-13.18359375,0.0,0
1586282040.8757482,296,1,-14.6484375,-20.01953125,-63.96484375,-7.32421875,0.0,0
1586282040.8796544,296,1,-13.671875,-21.484375,-42.96875,-15.625,0.0,0
1586282040.8835607,296,1,-30.2734375,-28.80859375,-49.31640625,-40.0390625,0.0,0
1586282040.887467,296,1,-33.69140625,-11.71875,-28.80859375,-48.828125,0.0,0
1586282040.8913732,296,1,-34.1796875,-20.01953125,-25.87890625,-50.78125,0.0,0
1586282040.8952794,296,1,-19.53125,-36.62109375,-35.15625,-31.73828125,0.0,0
1586282040.8991857,296,1,-21.484375,-35.64453125,-28.3203125,-16.11328125,0.0,0
1586282040.903092,296,1,-31.25,-24.90234375,-38.0859375,-35.15625,0.0,0
1586282040.9069982,296,1,-30.2734375,-31.25,-30.76171875,-31.25,0.0,0
1586282040.9109044,296,1,-29.78515625,-48.828125,-27.34375,-17.578125,0.0,0
1586282040.9148107,296,1,-25.390625,-70.80078125,-40.52734375,-23.92578125,0.0,0
1586282040.918717,296,1,-29.78515625,-58.10546875,-62.5,-25.390625,0.0,0
1586282040.9226232,296,1,-23.92578125,-20.99609375,-61.03515625,-14.16015625,0.0,0
1586282040.9265294,296,1,-21.484375,-26.3671875,-42.96875,-13.671875,0.0,0
1586282040.9304357,296,1,-25.390625,-30.2734375,-35.15625,-11.71875,0.0,0
1586282040.934342,296,1,-16.11328125,-33.203125,-49.8046875,-6.34765625,0.0,0
1586282040.9382482,296,1,-9.765625,-45.8984375,-51.7578125,-7.32421875,0.0,0
1586282040.9421544,296,1,-27.83203125,-44.921875,-35.64453125,-20.5078125,0.0,0
1586282040.9460607,296,1,-38.57421875,-27.34375,-32.71484375,-28.80859375,0.0,0
1586282040.949967,296,1,-26.85546875,-18.06640625,-24.90234375,-13.18359375,0.0,0
1586282040.9538732,296,1,-13.18359375,-26.85546875,-26.3671875,4.39453125,0.0,0
1586282040.9577794,296,1,-14.16015625,-18.5546875,-42.96875,10.25390625,0.0,0
1586282040.9616857,296,1,-22.94921875,-18.06640625,-52.734375,-4.8828125,0.0,0
1586282040.965592,296,1,-21.97265625,-35.64453125,-47.36328125,-6.8359375,0.0,0
1586282040.9694982,296,1,-17.08984375,-48.828125,-47.8515625,-1.46484375,0.0,0
1586282040.9734044,296,1,-18.5546875,-37.59765625,-28.80859375,-8.30078125,0.0,0
1586282040.9773107,296,1,-14.6484375,-9.765625,-20.99609375,-8.30078125,0.0,0
1586282040.981217,296,1,-18.5546875,-6.8359375,-33.69140625,-2.9296875,0.0,0
1586282040.9851232,296,1,-31.73828125,-26.3671875,-50.29296875,-18.06640625,0.0,0
1586282040.9890294,296,1,-22.94921875,-28.3203125,-61.5234375,-17.08984375,0.0,0
1586282040.9929357,296,1,-1.46484375,-10.25390625,-41.015625,4.39453125,0.0,0
1586282040.996842,296,1,-6.34765625,-45.41015625,-18.06640625,0.48828125,0.0,0
1586282041.0007482,296,1,-23.92578125,-67.87109375,-16.6015625,-19.53125,0.0,0
1586282041.0046544,296,1,-25.87890625,-24.90234375,-8.30078125,-25.87890625,0.0,0
1586282041.0085607,296,1,-31.25,-2.9296875,-22.4609375,-21.97265625,0.0,0
1586282041.012467,296,1,-21.484375,-11.71875,-49.8046875,-7.32421875,0.0,0
1586282041.0163732,296,1,-2.44140625,-18.5546875,-59.08203125,-3.90625,0.0,0
1586282041.0202794,296,1,-13.18359375,-9.765625,-42.48046875,-13.671875,0.0,0
1586282041.0241857,296,1,-26.85546875,-14.16015625,-19.53125,-9.765625,0.0,0
1586282041.028092,296,1,-24.90234375,-23.92578125,-27.83203125,-15.13671875,0.0,0
1586282041.0319982,296,1,-24.4140625,-30.2734375,-43.9453125,-4.39453125,0.0,0
1586282041.0359044,296,1,-14.16015625,-36.1328125,-32.71484375,11.71875,0.0,0
1586282041.0398107,296,1,-5.859375,-27.83203125,-24.4140625,2.44140625,0.0,0
1586282041.043717,296,1,-14.6484375,-39.55078125,-30.2734375,-8.30078125,0.0,0
1586282041.0476232,296,1,-22.4609375,-41.015625,-27.34375,-21.484375,0.0,0
1586282041.0515294,296,1,-21.97265625,-37.59765625,-19.53125,-26.85546875,0.0,0
1586282041.0554357,296,1,-17.578125,-38.57421875,-35.15625,-19.53125,0.0,0
1586282041.059342,296,1,-14.6484375,-9.765625,-59.08203125,-8.7890625,0.0,0
1586282041.0632482,296,1,-18.5546875,1.46484375,-30.2734375,-7.32421875,0.0,0
1586282041.0671544,296,1,-26.3671875,-11.71875,-18.06640625,-27.83203125,0.0,0
1586282041.0710607,296,1,-15.625,-26.85546875,-28.3203125,-19.04296875,0.0,0
1586282041.074967,296,1,-5.37109375,-19.04296875,-25.87890625,-2.9296875,0.0,0
1586282041.0788732,296,1,-12.6953125,-22.94921875,-5.37109375,-5.37109375,0.0,0
1586282041.0827794,296,1,-19.04296875,-49.31640625,-5.37109375,-7.8125,0.0,0
1586282041.0866857,296,1,-30.76171875,-41.015625,-49.31640625,-21.484375,0.0,0
1586282041.090592,296,1,-29.78515625,-14.16015625,-47.8515625,-26.85546875,0.0,0
1586282041.0944982,296,1,-21.97265625,-0.48828125,-34.66796875,-24.4140625,0.0,0
1586282041.0984044,296,1,-20.99609375,-6.8359375,-35.64453125,-7.32421875,0.0,0
1586282041.1023107,296,1,-24.4140625,-10.7421875,-38.57421875,-3.90625,0.0,0
1586282041.106217,296,1,-36.62109375,-8.30078125,-42.96875,-17.08984375,0.0,0
1586282041.1101232,296,1,-33.69140625,-8.7890625,-30.76171875,-25.87890625,0.0,0
1586282041.1140294,296,1,-14.6484375,-7.8125,-28.3203125,-21.97265625,0.0,0
1586282041.1179357,296,1,-3.41796875,-7.8125,-31.73828125,-1.46484375,0.0,0
1586282041.121842,296,1,-12.6953125,-7.32421875,-34.1796875,-9.27734375,0.0,0
1586282041.1257482,296,1,-24.4140625,-16.11328125,-41.015625,-26.85546875,0.0,0
1586282041.1296544,296,1,-27.34375,-26.85546875,-40.0390625,-31.73828125,0.0,0
1586282041.1335607,296,1,-21.484375,-19.04296875,-32.71484375,-33.203125,0.0,0
1586282041.137467,296,1,-8.30078125,-24.90234375,-31.25,-16.6015625,0.0,0
1586282041.1413732,296,1,-19.04296875,-33.69140625,-54.6875,-19.53125,0.0,0
1586282041.1452794,296,1,-26.3671875,-17.578125,-57.6171875,-28.80859375,0.0,0
1586282041.1491857,296,1,-20.5078125,-8.7890625,-26.85546875,-19.04296875,0.0,0
1586282041.153092,296,1,-16.11328125,-19.04296875,-22.94921875,-9.27734375,0.0,0
1586282041.1569982,296,1,-10.7421875,-23.92578125,-31.25,-1.953125,0.0,0
1586282041.1609044,296,1,-14.6484375,-10.25390625,-42.96875,-9.765625,0.0,0
1586282041.1648107,296,1,-23.4375,-22.94921875,-41.015625,-20.99609375,0.0,0
1586282041.168717,296,1,-30.2734375,-44.43359375,-28.80859375,-24.4140625,0.0,0
1586282041.1726232,296,1,-19.04296875,-23.92578125,-50.29296875,-21.97265625,0.0,0
1586282041.1765294,296,1,-3.90625,-1.46484375,-50.78125,-5.859375,0.0,0
1586282041.1804357,296,1,-9.765625,-14.16015625,-11.23046875,-2.44140625,0.0,0
1586282041.184342,296,1,-28.3203125,-28.80859375,-13.18359375,-21.97265625,0.0,0
1586282041.1882482,296,1,-33.203125,-34.1796875,-38.57421875,-24.4140625,0.0,0
1586282041.1921544,296,1,-18.5546875,-49.8046875,-40.0390625,-20.01953125,0.0,0
1586282041.1960607,296,1,-10.25390625,-29.78515625,-24.4140625,-17.08984375,0.0,0
1586282041.199967,296,1,-12.20703125,-1.953125,-29.78515625,-15.625,0.0,0
1586282041.2038732,296,1,-11.23046875,-47.8515625,-20.01953125,-14.16015625,0.0,0
1586282041.2077794,296,1,-17.08984375,-47.8515625,-3.90625,-14.16015625,0.0,0
1586282041.2116857,296,1,-22.94921875,-4.39453125,-24.90234375,-21.97265625,0.0,0
1586282041.215592,296,1,-18.5546875,-13.18359375,-31.73828125,-20.01953125,0.0,0
1586282041.2194982,296,1,-16.11328125,-25.390625,-21.97265625,-13.671875,0.0,0
1586282041.2234044,296,1,-17.578125,-38.0859375,-42.96875,-17.578125,0.0,0
1586282041.2273107,296,1,-21.484375,-35.64453125,-57.12890625,-26.3671875,0.0,0
1586282041.231217,296,1,-16.6015625,-11.23046875,-37.59765625,-19.04296875,0.0,0
1586282041.2351232,296,1,-1.46484375,-3.90625,-26.85546875,-13.18359375,0.0,0
1586282041.2390294,296,1,-14.6484375,-30.2734375,-26.3671875,-26.85546875,0.0,0
1586282041.2429357,296,1,-30.2734375,-30.76171875,-27.34375,-31.73828125,0.0,0
1586282041.246842,296,1,-28.3203125,-25.390625,-27.83203125,-28.80859375,0.0,0
1586282041.2507482,296,1,-25.87890625,-35.64453125,-16.11328125,-17.08984375,0.0,0
1586282041.2546544,296,1,-18.5546875,-26.3671875,-26.85546875,-6.8359375,0.0,0
1586282041.2585607,296,1,-19.04296875,-21.97265625,-29.296875,-20.99609375,0.0,0
1586282041.262467,296,1,-26.85546875,-33.203125,-6.8359375,-32.71484375,0.0,0
1586282041.2663732,296,1,-14.6484375,-21.97265625,-20.01953125,-20.99609375,0.0,0
1586282041.2702794,296,1,-6.34765625,-17.578125,-29.78515625,-15.625,0.0,0
1586282041.2741857,296,1,-16.11328125,-35.64453125,-27.83203125,-14.16015625,0.0,0
1586282041.278092,296,1,-21.97265625,-24.90234375,-41.015625,-11.23046875,0.0,0
1586282041.2819982,296,1,-26.85546875,-10.7421875,-32.71484375,-15.625,0.0,0
1586282041.2859044,296,1,-20.5078125,-34.66796875,-26.85546875,-14.16015625,0.0,0
1586282041.2898107,296,1,-15.13671875,-46.38671875,-21.484375,-21.484375,0.0,0
1586282041.293717,296,1,-10.7421875,-24.90234375,-3.41796875,-15.625,0.0,0
1586282041.2976232,296,1,-14.6484375,-18.5546875,-28.80859375,-5.37109375,0.0,0
1586282041.3015294,296,1,-30.2734375,-24.4140625,-61.03515625,-19.53125,0.0,0
1586282041.3054357,296,1,-36.1328125,-23.92578125,-50.78125,-29.78515625,0.0,0
1586282041.309342,296,1,-27.83203125,-34.1796875,-19.53125,-23.4375,0.0,0
1586282041.3132482,296,1,-9.765625,-47.36328125,-15.13671875,-20.5078125,0.0,0
1586282041.3171544,296,1,4.8828125,-24.90234375,-13.671875,-20.99609375,0.0,0
1586282041.3210607,296,1,1.46484375,-8.30078125,6.8359375,-13.671875,0.0,0
1586282041.324967,296,1,-12.20703125,-11.71875,-9.765625,-14.6484375,0.0,0
1586282041.3288732,296,1,-16.6015625,-17.578125,-41.015625,-20.01953125,0.0,0
1586282041.3327794,296,1,-10.7421875,-35.64453125,-46.38671875,-28.3203125,0.0,0
1586282041.3366857,296,1,-18.5546875,-33.203125,-31.73828125,-29.296875,0.0,0
1586282041.340592,296,1,-34.1796875,-20.5078125,-11.23046875,-21.484375,0.0,0
1586282041.3444982,296,1,-35.64453125,-14.16015625,-6.8359375,-23.92578125,0.0,0
1586282041.3484044,296,1,-40.0390625,-26.3671875,-21.484375,-28.3203125,0.0,0
1586282041.3523107,296,1,-28.3203125,-53.22265625,-35.64453125,-32.2265625,0.0,0
1586282041.356217,296,1,-11.23046875,-29.296875,-7.8125,-24.90234375,0.0,0
1586282041.3601232,296,1,-12.20703125,-24.90234375,-3.41796875,-18.06640625,0.0,0
1586282041.3640294,296,1,-15.13671875,-48.33984375,-41.015625,-21.97265625,0.0,0
1586282041.3679357,296,1,-18.06640625,-36.62109375,-40.52734375,-20.5078125,0.0,0
1586282041.371842,296,1,-17.578125,-25.390625,-31.25,-16.6015625,0.0,0
1586282041.3757482,296,1,-9.765625,-17.08984375,-27.83203125,-11.71875,0.0,0
1586282041.3796544,296,1,-13.671875,-40.0390625,-28.3203125,-4.39453125,0.0,0
1586282041.3835607,296,1,-19.53125,-46.38671875,-38.57421875,-2.44140625,0.0,0
1586282041.387467,296,1,-25.87890625,-41.015625,-26.3671875,-27.34375,0.0,0
1586282041.3913732,296,1,-26.85546875,-49.31640625,-13.671875,-39.55078125,0.0,0
1586282041.3952794,296,1,-23.92578125,-32.2265625,-40.0390625,-23.4375,0.0,0
1586282041.3991857,296,1,-22.4609375,-30.76171875,-55.17578125,-22.4609375,0.0,0
1586282041.403092,296,1,-19.53125,-28.80859375,-29.78515625,-18.06640625,0.0,0
1586282041.4069982,296,1,-21.484375,-25.390625,-21.484375,-26.85546875,0.0,0
1586282041.4109044,296,1,-17.578125,-35.15625,-14.6484375,-31.73828125,0.0,0
1586282041.4148107,296,1,-14.16015625,-20.01953125,-29.78515625,-16.6015625,0.0,0
1586282041.418717,296,1,-16.6015625,-19.04296875,-58.59375,-16.11328125,0.0,0
1586282041.4226232,296,1,-19.53125,-31.25,-29.296875,-16.6015625,0.0,0
1586282041.4265294,296,1,-30.76171875,-26.3671875,-17.08984375,-26.3671875,0.0,0
1586282041.4304357,296,1,-31.25,-31.25,-22.94921875,-24.90234375,0.0,0
1586282041.434342,296,1,-21.484375,-45.41015625,-15.13671875,-11.71875,0.0,0
1586282041.4382482,296,1,-23.4375,-42.48046875,-33.203125,-23.92578125,0.0,0
1586282041.4421544,296,1,-37.109375,-22.94921875,-53.22265625,-40.0390625,0.0,0
1586282041.4460607,296,1,-40.0390625,-22.94921875,-31.73828125,-28.80859375,0.0,0
1586282041.449967,296,1,-20.99609375,-35.64453125,-10.25390625,-15.625,0.0,0
1586282041.4538732,296,1,-17.08984375,-27.83203125,-24.4140625,-16.11328125,0.0,0
1586282041.4577794,296,1,-19.04296875,-20.01953125,-33.69140625,-11.71875,0.0,0
1586282041.4616857,297,2,-24.90234375,-35.15625,-35.64453125,-13.18359375,0.0,0
1586282041.465592,297,2,-33.69140625,-46.38671875,-29.78515625,-13.18359375,0.0,0
1586282041.4694982,297,2,-27.34375,-28.80859375,-13.671875,-4.39453125,0.0,0
1586282041.4734044,297,2,-16.6015625,-43.45703125,-13.671875,3.41796875,0.0,0
1586282041.4773107,297,2,-12.20703125,-62.98828125,-35.64453125,-2.44140625,0.0,0
1586282041.481217,297,2,-17.578125,-29.78515625,-50.78125,-16.6015625,0.0,0
1586282041.4851232,297,2,-21.97265625,-15.625,-42.48046875,-24.4140625,0.0,0
1586282041.4890294,297,2,-29.78515625,-58.59375,-45.8984375,-18.5546875,0.0,0
1586282041.4929357,297,2,-24.4140625,-67.87109375,-48.33984375,-13.18359375,0.0,0
1586282041.496842,297,2,-9.765625,-20.5078125,-35.15625,3.90625,0.0,0
1586282041.5007482,297,2,-21.484375,-9.765625,-25.390625,5.37109375,0.0,0
1586282041.5046544,297,2,-38.0859375,-19.04296875,-18.06640625,-20.99609375,0.0,0
1586282041.5085607,297,2,-33.203125,-9.765625,-21.97265625,-27.83203125,0.0,0
1586282041.512467,297,2,-24.4140625,-20.01953125,-33.203125,-21.484375,0.0,0
1586282041.5163732,297,2,-18.06640625,-38.57421875,-17.578125,-9.765625,0.0,0
1586282041.5202794,297,2,-29.78515625,-31.73828125,-6.8359375,-10.25390625,0.0,0
1586282041.5241857,297,2,-40.52734375,-31.25,-30.76171875,-23.4375,0.0,0
1586282041.528092,297,2,-35.15625,-39.0625,-51.7578125,-29.78515625,0.0,0
1586282041.5319982,297,2,-32.71484375,-45.8984375,-38.0859375,-29.78515625,0.0,0
1586282041.5359044,297,2,-13.671875,-28.80859375,-24.4140625,-8.30078125,0.0,0
1586282041.5398107,297,2,-7.32421875,-13.671875,-24.90234375,3.90625,0.0,0
1586282041.543717,297,2,-27.83203125,-22.4609375,-39.0625,-13.18359375,0.0,0
1586282041.5476232,297,2,-28.80859375,-29.296875,-42.48046875,-17.578125,0.0,0
1586282041.5515294,297,2,-16.6015625,-32.2265625,-15.13671875,-12.6953125,0.0,0
1586282041.5554357,297,2,-18.06640625,-43.45703125,-24.90234375,-16.6015625,0.0,0
1586282041.559342,297,2,-24.4140625,-47.8515625,-55.6640625,-11.23046875,0.0,0
1586282041.5632482,297,2,-28.3203125,-37.59765625,-40.0390625,-15.13671875,0.0,0
1586282041.5671544,297,2,-27.83203125,-36.62109375,-26.85546875,-24.4140625,0.0,0
1586282041.5710607,297,2,-17.578125,-25.87890625,-30.76171875,-17.08984375,0.0,0
1586282041.574967,297,2,-16.11328125,-11.23046875,-34.1796875,-17.578125,0.0,0
1586282041.5788732,297,2,-23.92578125,-12.6953125,-43.45703125,-26.85546875,0.0,0
1586282041.5827794,297,2,-28.80859375,-33.203125,-17.578125,-21.484375,0.0,0
1586282041.5866857,297,2,-35.64453125,-31.73828125,-20.5078125,-26.3671875,0.0,0
1586282041.590592,297,2,-21.97265625,-20.5078125,-47.36328125,-21.97265625,0.0,0
1586282041.5944982,297,2,-15.13671875,-31.25,-38.57421875,-18.06640625,0.0,0
1586282041.5984044,297,2,-32.71484375,-25.390625,-27.34375,-28.3203125,0.0,0
1586282041.6023107,297,2,-26.3671875,-7.32421875,-30.76171875,-26.3671875,0.0,0
1586282041.606217,297,2,-16.6015625,-16.6015625,-30.2734375,-20.99609375,0.0,0
1586282041.6101232,297,2,-20.5078125,-37.109375,-23.92578125,-21.484375,0.0,0
1586282041.6140294,297,2,-21.484375,-49.31640625,-34.1796875,-17.08984375,0.0,0
1586282041.6179357,297,2,-22.94921875,-30.2734375,-38.0859375,-13.671875,0.0,0
1586282041.621842,297,2,-25.390625,-20.5078125,-36.1328125,-20.5078125,0.0,0
1586282041.6257482,297,2,-30.2734375,-26.85546875,-40.52734375,-24.4140625,0.0,0
1586282041.6296544,297,2,-33.69140625,-33.69140625,-37.109375,-34.66796875,0.0,0
1586282041.6335607,297,2,-18.06640625,-41.50390625,-34.66796875,-36.62109375,0.0,0
1586282041.637467,297,2,-8.7890625,-33.203125,-32.71484375,-24.90234375,0.0,0
1586282041.6413732,297,2,-21.97265625,-21.484375,-26.3671875,-31.25,0.0,0
1586282041.6452794,297,2,-35.64453125,-28.80859375,-24.4140625,-40.52734375,0.0,0
1586282041.6491857,297,2,-27.83203125,-29.296875,-21.484375,-33.203125,0.0,0
1586282041.653092,297,2,-8.7890625,-12.20703125,-20.99609375,-23.92578125,0.0,0
1586282041.6569982,297,2,-9.27734375,-21.484375,-20.99609375,-17.08984375,0.0,0
1586282041.6609044,297,2,-25.390625,-29.296875,-39.0625,-16.11328125,0.0,0
1586282041.6648107,297,2,-34.66796875,-14.16015625,-51.7578125,-26.3671875,0.0,0
1586282041.668717,297,2,-27.34375,-13.18359375,-48.33984375,-30.76171875,0.0,0
1586282041.6726232,297,2,-24.90234375,-11.71875,-41.015625,-22.4609375,0.0,0
1586282041.6765294,297,2,-19.04296875,-9.27734375,-35.15625,-16.11328125,0.0,0
1586282041.6804357,297,2,-7.32421875,-18.5546875,-32.71484375,-12.6953125,0.0,0
1586282041.684342,297,2,-13.671875,-38.0859375,-23.4375,-16.6015625,0.0,0
1586282041.6882482,297,2,-15.625,-35.15625,-29.78515625,-24.90234375,0.0,0
1586282041.6921544,297,2,-16.6015625,-28.3203125,-39.55078125,-26.85546875,0.0,0
1586282041.6960607,297,2,-15.625,-44.43359375,-43.9453125,-12.20703125,0.0,0
1586282041.699967,297,2,-11.71875,-34.66796875,-17.08984375,-5.37109375,0.0,0
1586282041.7038732,297,2,-20.99609375,-18.06640625,-19.53125,-16.11328125,0.0,0
1586282041.7077794,297,2,-29.78515625,-17.08984375,-22.4609375,-23.92578125,0.0,0
1586282041.7116857,297,2,-20.99609375,-27.34375,-12.20703125,-18.5546875,0.0,0
1586282041.715592,297,2,-10.7421875,-26.3671875,-28.3203125,-3.90625,0.0,0
1586282041.7194982,297,2,-16.6015625,-20.01953125,-23.92578125,-0.9765625,0.0,0
1586282041.7234044,297,2,-36.1328125,-28.80859375,-26.3671875,-31.73828125,0.0,0
1586282041.7273107,297,2,-37.109375,-43.45703125,-33.203125,-40.0390625,0.0,0
1586282041.731217,297,2,-28.3203125,-41.50390625,-30.76171875,-18.06640625,0.0,0
1586282041.7351232,297,2,-22.94921875,-22.4609375,-24.4140625,-15.625,0.0,0
1586282041.7390294,297,2,-19.04296875,-24.4140625,-4.39453125,-16.11328125,0.0,0
1586282041.7429357,297,2,-28.3203125,-46.875,-6.34765625,-22.94921875,0.0,0
1586282041.746842,297,2,-33.69140625,-35.64453125,-15.625,-30.76171875,0.0,0
1586282041.7507482,297,2,-20.99609375,-10.7421875,-32.2265625,-25.390625,0.0,0
1586282041.7546544,297,2,-8.7890625,-29.78515625,-43.9453125,-9.765625,0.0,0
1586282041.7585607,297,2,-5.859375,-31.73828125,-29.296875,-5.37109375,0.0,0
1586282041.762467,297,2,-14.16015625,-9.27734375,-22.94921875,-15.13671875,0.0,0
1586282041.7663732,297,2,-35.64453125,-8.7890625,-51.26953125,-28.80859375,0.0,0
1586282041.7702794,297,2,-46.875,-16.6015625,-44.43359375,-45.41015625,0.0,0
1586282041.7741857,297,2,-34.66796875,-28.80859375,-22.94921875,-22.4609375,0.0,0
1586282041.778092,297,2,-31.73828125,-32.2265625,-38.57421875,-9.27734375,0.0,0
1586282041.7819982,297,2,-38.57421875,-34.66796875,-27.83203125,-35.15625,0.0,0
1586282041.7859044,297,2,-40.0390625,-32.71484375,-10.7421875,-38.57421875,0.0,0
1586282041.7898107,297,2,-30.2734375,-25.390625,-21.97265625,-36.62109375,0.0,0
1586282041.793717,297,2,-18.5546875,-19.04296875,-25.87890625,-20.01953125,0.0,0
1586282041.7976232,297,2,-14.6484375,-34.66796875,-41.015625,-4.8828125,0.0,0
1586282041.8015294,297,2,-20.99609375,-31.73828125,-41.50390625,-13.18359375,0.0,0
1586282041.8054357,297,2,-34.66796875,-22.94921875,-34.66796875,-37.109375,0.0,0
1586282041.809342,297,2,-35.15625,-40.0390625,-37.109375,-40.52734375,0.0,0
1586282041.8132482,297,2,-29.78515625,-41.015625,-35.64453125,-27.34375,0.0,0
1586282041.8171544,297,2,-37.109375,-32.2265625,-36.1328125,-23.4375,0.0,0
1586282041.8210607,297,2,-45.41015625,-16.11328125,-25.390625,-9.27734375,0.0,0
1586282041.824967,297,2,-39.0625,-15.13671875,-20.5078125,-11.23046875,0.0,0
1586282041.8288732,297,2,-31.73828125,-27.34375,-45.41015625,-18.5546875,0.0,0
1586282041.8327794,297,2,-25.390625,-26.3671875,-60.05859375,-20.01953125,0.0,0
1586282041.8366857,297,2,-15.625,-13.671875,-46.38671875,-7.32421875,0.0,0
1586282041.840592,297,2,-18.5546875,-15.625,-26.3671875,-4.8828125,0.0,0
1586282041.8444982,297,2,-32.71484375,-32.71484375,-14.6484375,-18.06640625,0.0,0
1586282041.8484044,297,2,-38.0859375,-30.2734375,-21.484375,-22.94921875,0.0,0
1586282041.8523107,297,2,-21.484375,-44.43359375,-32.2265625,-28.80859375,0.0,0
1586282041.856217,297,2,-12.20703125,-74.70703125,-29.296875,-22.94921875,0.0,0
1586282041.8601232,297,2,-15.625,-35.15625,-28.3203125,-18.06640625,0.0,0
1586282041.8640294,297,2,-23.4375,0.0,-28.80859375,-13.671875,0.0,0
1586282041.8679357,297,2,-30.2734375,-6.34765625,-20.99609375,-2.9296875,0.0,0
1586282041.871842,297,2,-18.06640625,-7.8125,-27.34375,-5.37109375,0.0,0
1586282041.8757482,297,2,-7.32421875,-12.20703125,-23.4375,-1.953125,0.0,0
1586282041.8796544,297,2,-13.671875,-33.203125,-31.25,-6.34765625,0.0,0
1586282041.8835607,297,2,-23.92578125,-30.76171875,-30.76171875,-21.97265625,0.0,0
1586282041.887467,297,2,-24.4140625,-9.765625,-16.11328125,-26.3671875,0.0,0
1586282041.8913732,297,2,-14.6484375,-17.578125,-23.92578125,-24.90234375,0.0,0
1586282041.8952794,297,2,-13.671875,-34.66796875,-25.87890625,-16.6015625,0.0,0
1586282041.8991857,297,2,-9.27734375,-21.484375,-16.6015625,-3.90625,0.0,0
1586282041.903092,297,2,-14.6484375,-2.9296875,-21.484375,-12.6953125,0.0,0
1586282041.9069982,297,2,-29.296875,-29.296875,-40.0390625,-27.34375,0.0,0
1586282041.9109044,297,2,-20.5078125,-32.2265625,-34.66796875,-10.25390625,0.0,0
1586282041.9148107,297,2,-14.6484375,-5.37109375,-14.16015625,2.9296875,0.0,0
1586282041.918717,297,2,-17.08984375,-22.94921875,-8.30078125,-8.7890625,0.0,0
1586282041.9226232,297,2,-23.92578125,-21.484375,-11.71875,-23.4375,0.0,0
1586282041.9265294,297,2,-29.296875,-25.390625,-22.94921875,-24.90234375,0.0,0
1586282041.9304357,297,2,-28.80859375,-37.109375,-55.6640625,-25.87890625,0.0,0
1586282041.934342,297,2,-19.04296875,-21.97265625,-61.03515625,-23.4375,0.0,0
1586282041.9382482,297,2,-18.06640625,-24.4140625,-25.390625,-22.4609375,0.0,0
1586282041.9421544,297,2,-25.87890625,-31.73828125,-14.16015625,-14.6484375,0.0,0
1586282041.9460607,297,2,-27.34375,-32.2265625,-36.1328125,-15.625,0.0,0
1586282041.949967,297,2,-28.80859375,-39.55078125,-34.1796875,-23.4375,0.0,0
1586282041.9538732,297,2,-14.6484375,-39.55078125,-6.8359375,-7.8125,0.0,0
1586282041.9577794,297,2,-11.71875,-36.1328125,-20.01953125,-1.46484375,0.0,0
1586282041.9616857,297,2,-28.3203125,-44.43359375,-46.875,-20.01953125,0.0,0
1586282041.965592,297,2,-41.9921875,-34.1796875,-43.9453125,-40.52734375,0.0,0
1586282041.9694982,297,2,-35.64453125,-18.06640625,-33.69140625,-43.9453125,0.0,0
1586282041.9734044,297,2,-21.484375,-17.08984375,-27.83203125,-22.4609375,0.0,0
1586282041.9773107,297,2,-17.578125,-28.80859375,-12.6953125,-23.4375,0.0,0
1586282041.981217,297,2,-20.5078125,-37.109375,-13.671875,-36.1328125,0.0,0
1586282041.9851232,297,2,-25.87890625,-29.296875,-46.875,-35.64453125,0.0,0
1586282041.9890294,297,2,-28.80859375,-26.85546875,-47.36328125,-35.64453125,0.0,0
1586282041.9929357,297,2,-19.53125,-22.94921875,-20.5078125,-35.64453125,0.0,0
1586282041.996842,297,2,-16.6015625,-22.94921875,-12.6953125,-25.390625,0.0,0
1586282042.0007482,297,2,-21.484375,-16.6015625,-24.90234375,-21.484375,0.0,0
1586282042.0046544,297,2,-20.01953125,-26.85546875,-25.87890625,-20.01953125,0.0,0
1586282042.0085607,297,2,-22.94921875,-34.66796875,-23.92578125,-22.94921875,0.0,0
1586282042.012467,297,2,-21.97265625,-27.83203125,-17.578125,-20.99609375,0.0,0
1586282042.0163732,297,2,-12.20703125,-36.62109375,-20.01953125,-10.25390625,0.0,0
1586282042.0202794,297,2,-16.11328125,-18.5546875,-23.92578125,-8.7890625,0.0,0
1586282042.0241857,297,2,-20.01953125,-3.41796875,-13.18359375,-24.90234375,0.0,0
1586282042.028092,297,2,-11.71875,-9.765625,-15.13671875,-30.76171875,0.0,0
1586282042.0319982,297,2,-6.34765625,-10.25390625,-33.69140625,-19.53125,0.0,0
1586282042.0359044,297,2,-4.39453125,-23.4375,-44.921875,-9.765625,0.0,0
1586282042.0398107,297,2,-1.46484375,-37.109375,-45.8984375,-4.8828125,0.0,0
1586282042.043717,297,2,-14.6484375,-29.78515625,-41.015625,-9.765625,0.0,0
1586282042.0476232,297,2,-28.3203125,-37.59765625,-29.296875,-22.94921875,0.0,0
1586282042.0515294,297,2,-21.484375,-33.69140625,-25.390625,-23.92578125,0.0,0
1586282042.0554357,297,2,-13.18359375,-3.41796875,-13.18359375,-12.6953125,0.0,0
1586282042.059342,297,2,-11.71875,6.34765625,-12.20703125,-4.39453125,0.0,0
1586282042.0632482,297,2,-21.484375,-3.90625,-28.80859375,-12.6953125,0.0,0
1586282042.0671544,297,2,-33.203125,-27.34375,-36.62109375,-25.390625,0.0,0
1586282042.0710607,297,2,-29.296875,-21.97265625,-36.62109375,-18.5546875,0.0,0
1586282042.074967,297,2,-20.99609375,-21.484375,-29.296875,-6.8359375,0.0,0
1586282042.0788732,297,2,-15.625,-44.921875,-23.92578125,-17.578125,0.0,0
1586282042.0827794,297,2,-35.64453125,-38.0859375,-21.484375,-29.78515625,0.0,0
1586282042.0866857,297,2,-53.22265625,-22.94921875,-26.85546875,-17.578125,0.0,0
1586282042.090592,297,2,-33.69140625,-19.53125,-24.4140625,-6.34765625,0.0,0
1586282042.0944982,297,2,-16.6015625,-24.4140625,-25.390625,-5.859375,0.0,0
1586282042.0984044,297,2,-21.97265625,-25.87890625,-40.0390625,-2.9296875,0.0,0
1586282042.1023107,297,2,-29.296875,-29.78515625,-33.203125,-8.30078125,0.0,0
1586282042.106217,297,2,-30.76171875,-49.8046875,-25.390625,-19.53125,0.0,0
1586282042.1101232,297,2,-35.64453125,-39.55078125,-35.15625,-25.87890625,0.0,0
1586282042.1140294,297,2,-25.87890625,-18.5546875,-42.96875,-22.94921875,0.0,0
1586282042.1179357,297,2,-12.20703125,-27.34375,-40.0390625,-5.37109375,0.0,0
1586282042.121842,297,2,-20.99609375,-40.52734375,-31.25,-0.48828125,0.0,0
1586282042.1257482,297,2,-29.78515625,-40.52734375,-31.73828125,-16.6015625,0.0,0
1586282042.1296544,297,2,-20.5078125,-27.83203125,-24.4140625,-13.18359375,0.0,0
1586282042.1335607,297,2,-6.34765625,-35.64453125,-21.484375,-5.859375,0.0,0
1586282042.137467,297,2,-16.11328125,-57.6171875,-45.8984375,-13.671875,0.0,0
1586282042.1413732,297,2,-25.390625,-22.4609375,-44.43359375,-16.6015625,0.0,0
1586282042.1452794,297,2,-28.3203125,-0.48828125,-32.71484375,-24.4140625,0.0,0
1586282042.1491857,297,2,-35.64453125,-22.94921875,-26.3671875,-29.78515625,0.0,0
1586282042.153092,297,2,-21.484375,-18.06640625,-13.671875,-16.11328125,0.0,0
1586282042.1569982,297,2,-2.44140625,-6.8359375,-21.97265625,-2.9296875,0.0,0
1586282042.1609044,297,2,-2.44140625,-14.16015625,-15.625,-3.41796875,0.0,0
1586282042.1648107,297,2,-23.92578125,-19.04296875,-16.6015625,-23.4375,0.0,0
1586282042.168717,297,2,-28.80859375,-23.4375,-24.90234375,-27.34375,0.0,0
1586282042.1726232,297,2,-13.18359375,-33.69140625,-32.2265625,-16.6015625,0.0,0
1586282042.1765294,297,2,0.48828125,-50.29296875,-40.52734375,-12.6953125,0.0,0
1586282042.1804357,297,2,0.48828125,-39.55078125,-29.78515625,4.39453125,0.0,0
1586282042.184342,297,2,-6.8359375,-26.85546875,-20.5078125,0.0,0.0,0
1586282042.1882482,297,2,-9.27734375,-38.0859375,-50.78125,-18.06640625,0.0,0
1586282042.1921544,297,2,-2.9296875,-20.99609375,-72.75390625,-19.53125,0.0,0
1586282042.1960607,297,2,-3.90625,-6.34765625,-26.3671875,-6.8359375,0.0,0
1586282042.199967,297,2,-17.578125,-11.71875,-12.20703125,-11.71875,0.0,0
1586282042.2038732,297,2,-27.34375,-12.6953125,-30.2734375,-31.73828125,0.0,0
1586282042.2077794,297,2,-26.3671875,-16.6015625,-30.2734375,-37.59765625,0.0,0
1586282042.2116857,297,2,-27.83203125,-37.109375,-40.0390625,-27.83203125,0.0,0
1586282042.215592,297,2,-25.87890625,-59.5703125,-40.0390625,-12.20703125,0.0,0
1586282042.2194982,297,2,-22.94921875,-42.96875,-33.203125,-8.30078125,0.0,0
1586282042.2234044,297,2,-26.3671875,-17.578125,-18.06640625,-11.71875,0.0,0
1586282042.2273107,297,2,-32.2265625,-20.01953125,-19.04296875,-16.6015625,0.0,0
1586282042.231217,297,2,-24.4140625,-20.01953125,-19.04296875,-16.6015625,0.0,0
1586282042.2351232,297,2,-10.25390625,-4.39453125,-27.83203125,-14.6484375,0.0,0
1586282042.2390294,297,2,-16.11328125,-15.13671875,-54.19921875,-20.5078125,0.0,0
1586282042.2429357,297,2,-29.296875,-29.78515625,-37.109375,-10.25390625,0.0,0
1586282042.246842,297,2,-36.62109375,-21.97265625,-13.18359375,-8.30078125,0.0,0
1586282042.2507482,297,2,-37.109375,-21.484375,-23.4375,-25.87890625,0.0,0
1586282042.2546544,297,2,-22.94921875,-33.69140625,-33.69140625,-27.34375,0.0,0
1586282042.2585607,297,2,-15.625,-41.9921875,-38.0859375,-18.06640625,0.0,0
1586282042.262467,297,2,-18.06640625,-37.59765625,-38.0859375,-15.625,0.0,0
1586282042.2663732,297,2,-20.99609375,-33.69140625,-20.01953125,-18.5546875,0.0,0
1586282042.2702794,297,2,-21.97265625,-18.5546875,-3.41796875,-18.5546875,0.0,0
1586282042.2741857,297,2,-15.625,-6.8359375,-7.8125,-19.53125,0.0,0
1586282042.278092,297,2,-6.8359375,-25.390625,-22.94921875,-5.859375,0.0,0
1586282042.2819982,297,2,-4.8828125,-23.92578125,-23.92578125,-9.27734375,0.0,0
1586282042.2859044,297,2,-19.53125,-31.25,-23.92578125,-27.83203125,0.0,0
1586282042.2898107,297,2,-22.4609375,-47.36328125,-27.34375,-17.08984375,0.0,0
1586282042.293717,297,2,-18.06640625,-37.59765625,-26.3671875,-11.71875,0.0,0
1586282042.2976232,297,2,-12.20703125,-23.4375,-16.6015625,-11.71875,0.0,0
1586282042.3015294,297,2,-20.01953125,-29.296875,-30.2734375,-8.7890625,0.0,0
1586282042.3054357,297,2,-24.4140625,-25.390625,-45.8984375,-15.13671875,0.0,0
1586282042.309342,297,2,-27.34375,-20.5078125,-23.4375,-27.83203125,0.0,0
1586282042.3132482,297,2,-22.94921875,-23.4375,-15.13671875,-16.11328125,0.0,0
1586282042.3171544,297,2,-8.7890625,-22.94921875,-29.296875,-2.44140625,0.0,0
1586282042.3210607,297,2,-16.11328125,-24.4140625,-35.15625,-8.7890625,0.0,0
1586282042.324967,297,2,-33.203125,-19.53125,-49.8046875,-23.4375,0.0,0
1586282042.3288732,297,2,-36.62109375,-41.50390625,-42.48046875,-30.2734375,0.0,0
1586282042.3327794,297,2,-28.3203125,-57.12890625,-25.87890625,-15.625,0.0,0
1586282042.3366857,297,2,-21.97265625,-27.34375,-23.4375,-9.27734375,0.0,0
1586282042.340592,297,2,-20.99609375,-10.7421875,-31.25,-23.4375,0.0,0
1586282042.3444982,297,2,-25.390625,-20.5078125,-40.52734375,-31.25,0.0,0
1586282042.3484044,297,2,-22.94921875,-23.4375,-22.94921875,-33.69140625,0.0,0
1586282042.3523107,297,2,-23.4375,-17.08984375,-17.578125,-28.80859375,0.0,0
1586282042.356217,297,2,-24.4140625,-27.83203125,-33.203125,-31.25,0.0,0
1586282042.3601232,297,2,-27.34375,-41.015625,-29.296875,-31.73828125,0.0,0
1586282042.3640294,297,2,-26.85546875,-35.64453125,-15.13671875,-26.3671875,0.0,0
1586282042.3679357,297,2,-24.90234375,-26.3671875,-23.4375,-37.59765625,0.0,0
1586282042.371842,297,2,-19.04296875,-19.04296875,-31.25,-39.55078125,0.0,0
1586282042.3757482,297,2,-20.01953125,-23.4375,-40.0390625,-35.64453125,0.0,0
1586282042.3796544,297,2,-33.69140625,-29.296875,-43.45703125,-45.41015625,0.0,0
1586282042.3835607,297,2,-38.57421875,-27.83203125,-37.109375,-49.8046875,0.0,0
1586282042.387467,297,2,-44.921875,-27.83203125,-35.64453125,-44.921875,0.0,0
1586282042.3913732,297,2,-62.01171875,-24.90234375,-33.69140625,-52.24609375,0.0,0
1586282042.3952794,297,2,-67.3828125,-24.90234375,-35.64453125,-57.6171875,0.0,0
1586282042.3991857,297,2,-71.2890625,-19.53125,-30.76171875,-64.94140625,0.0,0
1586282042.403092,297,2,-90.33203125,-16.11328125,-14.16015625,-85.9375,0.0,0
1586282042.4069982,297,2,-115.234375,-19.53125,-5.37109375,-101.07421875,0.0,0
1586282042.4109044,297,2,-123.046875,-18.06640625,-13.18359375,-109.86328125,0.0,0
1586282042.4148107,297,2,-125.48828125,-11.71875,-20.5078125,-119.62890625,0.0,0
1586282042.418717,297,2,-140.625,-12.20703125,-10.25390625,-132.8125,0.0,0
1586282042.4226232,297,2,-163.0859375,-21.484375,-5.37109375,-154.78515625,0.0,0
1586282042.4265294,297,2,-179.19921875,-20.01953125,-36.62109375,-171.875,0.0,0
1586282042.4304357,297,2,-181.15234375,-4.8828125,-32.71484375,-178.22265625,0.0,0
1586282042.434342,297,2,-170.8984375,-8.30078125,2.44140625,-182.12890625,0.0,0
1586282042.4382482,297,2,-174.31640625,-15.13671875,-5.859375,-177.24609375,0.0,0
1586282042.4421544,297,2,-192.3828125,-22.94921875,-9.765625,-173.828125,0.0,0
1586282042.4460607,297,2,-190.4296875,-28.3203125,-1.953125,-180.17578125,0.0,0
1586282042.449967,297,2,-173.828125,-26.3671875,8.7890625,-166.015625,0.0,0
1586282042.4538732,297,2,-160.15625,-28.80859375,-1.46484375,-149.4140625,0.0,0
1586282042.4577794,297,2,-146.97265625,-25.390625,-26.3671875,-144.04296875,0.0,0
1586282042.4616857,297,2,-129.39453125,-29.296875,-23.4375,-128.41796875,0.0,0
1586282042.465592,297,2,-116.69921875,-18.06640625,-22.94921875,-115.72265625,0.0,0
1586282042.4694982,297,2,-101.5625,-0.48828125,-20.01953125,-100.09765625,0.0,0
1586282042.4734044,297,2,-76.66015625,-14.6484375,-28.3203125,-77.1484375,0.0,0
1586282042.4773107,297,2,-63.4765625,-15.625,-38.0859375,-63.4765625,0.0,0
1586282042.481217,297,2,-61.03515625,-20.99609375,-36.62109375,-43.45703125,0.0,0
1586282042.4851232,297,2,-62.01171875,-35.15625,-40.52734375,-37.59765625,0.0,0
1586282042.4890294,297,2,-48.828125,-29.78515625,-29.78515625,-35.64453125,0.0,0
1586282042.4929357,297,2,-29.78515625,-26.3671875,-17.08984375,-22.4609375,0.0,0
1586282042.496842,297,2,-20.5078125,-38.0859375,-18.06640625,-21.484375,0.0,0
1586282042.5007482,297,2,-20.99609375,-47.8515625,-25.390625,-17.08984375,0.0,0
1586282042.5046544,297,2,-16.11328125,-30.76171875,-38.0859375,-2.44140625,0.0,0
1586282042.5085607,297,2,-15.625,-23.4375,-50.29296875,1.46484375,0.0,0
1586282042.512467,297,2,-11.71875,-30.2734375,-60.05859375,2.9296875,0.0,0
1586282042.5163732,297,2,3.90625,-23.92578125,-50.29296875,2.9296875,0.0,0
1586282042.5202794,297,2,0.48828125,-15.625,-31.73828125,1.46484375,0.0,0
1586282042.5241857,297,2,-5.37109375,-22.4609375,-41.50390625,2.9296875,0.0,0
1586282042.528092,297,2,-0.9765625,-35.64453125,-52.734375,4.8828125,0.0,0
1586282042.5319982,297,2,3.90625,-51.26953125,-41.50390625,9.765625,0.0,0
1586282042.5359044,297,2,16.6015625,-45.8984375,-54.6875,24.90234375,0.0,0
1586282042.5398107,297,2,27.34375,-24.90234375,-62.01171875,33.69140625,0.0,0
1586282042.543717,297,2,22.94921875,-17.08984375,-36.62109375,34.1796875,0.0,0
1586282042.5476232,297,2,15.13671875,-15.13671875,-49.8046875,35.64453125,0.0,0
1586282042.5515294,297,2,23.92578125,-21.484375,-49.31640625,38.0859375,0.0,0
1586282042.5554357,297,2,37.109375,-29.78515625,-27.34375,47.36328125,0.0,0
1586282042.559342,297,2,35.15625,-34.66796875,-21.484375,58.10546875,0.0,0
1586282042.5632482,297,2,26.85546875,-50.78125,-27.83203125,51.26953125,0.0,0
1586282042.5671544,297,2,22.4609375,-41.015625,-40.52734375,34.1796875,0.0,0
1586282042.5710607,297,2,27.83203125,-26.3671875,-43.9453125,37.59765625,0.0,0
1586282042.574967,297,2,40.0390625,-34.66796875,-41.9921875,49.31640625,0.0,0
1586282042.5788732,297,2,39.55078125,-47.8515625,-32.71484375,45.41015625,0.0,0
1586282042.5827794,297,2,33.69140625,-38.57421875,-30.76171875,30.2734375,0.0,0
1586282042.5866857,297,2,27.83203125,-16.6015625,-27.34375,15.625,0.0,0
1586282042.590592,297,2,21.97265625,-19.04296875,-21.97265625,24.4140625,0.0,0
1586282042.5944982,297,2,29.78515625,-18.06640625,-41.50390625,33.203125,0.0,0
1586282042.5984044,297,2,34.1796875,-20.01953125,-51.7578125,29.78515625,0.0,0
1586282042.6023107,297,2,26.3671875,-21.484375,-38.0859375,25.390625,0.0,0
1586282042.606217,297,2,21.97265625,-21.97265625,-31.73828125,22.4609375,0.0,0
1586282042.6101232,297,2,18.06640625,-30.2734375,-48.828125,12.6953125,0.0,0
1586282042.6140294,297,2,19.04296875,-41.50390625,-49.8046875,6.8359375,0.0,0
1586282042.6179357,297,2,34.1796875,-28.80859375,-29.78515625,25.87890625,0.0,0
1586282042.621842,297,2,29.296875,-14.16015625,-19.04296875,24.90234375,0.0,0
1586282042.6257482,297,2,5.37109375,-24.4140625,-26.85546875,12.20703125,0.0,0
1586282042.6296544,297,2,4.8828125,-34.1796875,-42.96875,2.44140625,0.0,0
1586282042.6335607,297,2,12.20703125,-44.921875,-55.6640625,-0.48828125,0.0,0
1586282042.637467,297,2,-0.48828125,-39.55078125,-64.94140625,4.8828125,0.0,0
1586282042.6413732,297,2,7.32421875,-27.83203125,-49.8046875,8.30078125,0.0,0
1586282042.6452794,297,2,25.390625,-28.3203125,-44.43359375,9.27734375,0.0,0
1586282042.6491857,297,2,28.80859375,-23.92578125,-41.9921875,6.8359375,0.0,0
1586282042.653092,297,2,36.1328125,-37.109375,-35.15625,14.6484375,0.0,0
1586282042.6569982,297,2,33.203125,-52.24609375,-28.80859375,26.3671875,0.0,0
1586282042.6609044,297,2,26.85546875,-33.69140625,-13.671875,23.92578125,0.0,0
1586282042.6648107,297,2,18.06640625,-19.04296875,-17.08984375,16.6015625,0.0,0
1586282042.668717,297,2,10.25390625,-27.83203125,-27.34375,8.30078125,0.0,0
1586282042.6726232,297,2,13.18359375,-39.55078125,-22.94921875,11.71875,0.0,0
1586282042.6765294,297,2,17.578125,-40.0390625,-25.87890625,7.32421875,0.0,0
1586282042.6804357,297,2,1.46484375,-42.48046875,-38.0859375,-3.90625,0.0,0
1586282042.684342,297,2,-11.71875,-52.734375,-59.08203125,-3.90625,0.0,0
1586282042.6882482,297,2,-3.41796875,-46.875,-56.15234375,-8.30078125,0.0,0
1586282042.6921544,297,2,3.41796875,-35.64453125,-31.25,-16.6015625,0.0,0
1586282042.6960607,297,2,-0.9765625,-45.41015625,-29.296875,-9.765625,0.0,0
1586282042.699967,297,2,-13.18359375,-29.78515625,-32.71484375,4.8828125,0.0,0
1586282042.7038732,297,2,-7.8125,-11.23046875,-41.50390625,-5.37109375,0.0,0
1586282042.7077794,297,2,-12.6953125,-23.92578125,-39.0625,-12.6953125,0.0,0
1586282042.7116857,297,2,-14.16015625,-32.2265625,-27.83203125,-5.37109375,0.0,0
1586282042.715592,297,2,1.46484375,-28.3203125,-20.99609375,3.41796875,0.0,0
1586282042.7194982,297,2,-16.11328125,-24.90234375,-26.85546875,-5.37109375,0.0,0
1586282042.7234044,297,2,-38.0859375,-45.8984375,-32.71484375,-10.25390625,0.0,0
1586282042.7273107,297,2,-32.2265625,-60.05859375,-25.390625,-14.6484375,0.0,0
1586282042.731217,297,2,-17.578125,-41.9921875,-32.2265625,-22.94921875,0.0,0
1586282042.7351232,297,2,-0.48828125,-18.06640625,-34.66796875,-15.13671875,0.0,0
1586282042.7390294,297,2,-2.9296875,-14.6484375,-32.2265625,-11.71875,0.0,0
1586282042.7429357,297,2,-12.20703125,-28.80859375,-52.24609375,-23.4375,0.0,0
1586282042.746842,297,2,-12.20703125,-42.96875,-53.7109375,-27.34375,0.0,0
1586282042.7507482,297,2,-10.25390625,-26.85546875,-37.59765625,-25.390625,0.0,0
1586282042.7546544,297,2,-5.37109375,-13.18359375,-26.85546875,-23.92578125,0.0,0
1586282042.7585607,297,2,-2.44140625,-6.34765625,-32.71484375,-18.5546875,0.0,0
1586282042.762467,297,2,-11.23046875,-7.8125,-48.33984375,-11.71875,0.0,0
1586282042.7663732,297,2,-33.69140625,-16.11328125,-45.8984375,-26.85546875,0.0,0
1586282042.7702794,297,2,-44.921875,-16.11328125,-24.4140625,-36.62109375,0.0,0
1586282042.7741857,297,2,-35.15625,-22.94921875,-18.5546875,-37.59765625,0.0,0
1586282042.778092,297,2,-43.9453125,-28.3203125,-25.87890625,-34.1796875,0.0,0
1586282042.7819982,297,2,-69.82421875,-32.2265625,-32.71484375,-48.828125,0.0,0
1586282042.7859044,297,2,-90.33203125,-30.2734375,-30.2734375,-76.66015625,0.0,0
1586282042.7898107,297,2,-102.5390625,-25.87890625,-24.90234375,-89.35546875,0.0,0
1586282042.793717,297,2,-110.83984375,-28.80859375,-22.94921875,-96.19140625,0.0,0
1586282042.7976232,297,2,-129.39453125,-33.69140625,-20.01953125,-102.05078125,0.0,0
1586282042.8015294,297,2,-140.13671875,-29.296875,-23.4375,-129.39453125,0.0,0
1586282042.8054357,297,2,-148.92578125,-24.90234375,-21.97265625,-142.578125,0.0,0
1586282042.809342,297,2,-167.96875,-30.76171875,-15.625,-147.94921875,0.0,0
1586282042.8132482,297,2,-176.26953125,-30.76171875,-15.13671875,-170.41015625,0.0,0
1586282042.8171544,297,2,-180.17578125,-31.25,-12.6953125,-174.31640625,0.0,0
1586282042.8210607,297,2,-176.7578125,-34.1796875,-10.7421875,-179.19921875,0.0,0
1586282042.824967,297,2,-169.921875,-20.99609375,-4.8828125,-191.89453125,0.0,0
1586282042.8288732,297,2,-176.26953125,-18.06640625,13.18359375,-185.05859375,0.0,0
1586282042.8327794,297,2,-198.2421875,-26.3671875,-2.44140625,-189.94140625,0.0,0
1586282042.8366857,297,2,-192.3828125,-30.76171875,-12.20703125,-189.94140625,0.0,0
1586282042.840592,297,2,-189.94140625,-34.1796875,-8.30078125,-177.734375,0.0,0
1586282042.8444982,297,2,-204.58984375,-17.08984375,-17.578125,-178.7109375,0.0,0
1586282042.8484044,297,2,-197.265625,-16.11328125,-2.9296875,-182.12890625,0.0,0
1586282042.8523107,297,2,-173.33984375,-20.99609375,-3.90625,-172.8515625,0.0,0
1586282042.856217,297,2,-153.3203125,-20.01953125,-2.9296875,-150.87890625,0.0,0
1586282042.8601232,297,2,-157.2265625,-23.92578125,-6.34765625,-154.78515625,0.0,0
1586282042.8640294,297,2,-164.0625,-19.53125,-4.8828125,-153.80859375,0.0,0
1586282042.8679357,297,2,-145.5078125,-22.94921875,0.9765625,-131.8359375,0.0,0
1586282042.871842,297,2,-124.0234375,-41.015625,-8.30078125,-114.2578125,0.0,0
1586282042.8757482,297,2,-100.09765625,-38.0859375,-9.765625,-91.30859375,0.0,0
1586282042.8796544,297,2,-80.56640625,-23.92578125,-24.4140625,-73.2421875,0.0,0
1586282042.8835607,297,2,-75.68359375,-31.73828125,-29.296875,-61.5234375,0.0,0
1586282042.887467,297,2,-61.5234375,-34.66796875,-26.85546875,-46.38671875,0.0,0
1586282042.8913732,297,2,-44.43359375,-36.1328125,-35.15625,-38.57421875,0.0,0
1586282042.8952794,297,2,-41.50390625,-41.50390625,-44.43359375,-29.78515625,0.0,0
1586282042.8991857,297,2,-41.015625,-41.9921875,-40.0390625,-18.5546875,0.0,0
1586282042.903092,297,2,-29.78515625,-49.8046875,-34.66796875,-4.8828125,0.0,0
1586282042.9069982,297,2,-19.04296875,-49.8046875,-34.66796875,2.9296875,0.0,0
1586282042.9109044,297,2,-3.90625,-46.38671875,-20.01953125,13.671875,0.0,0
1586282042.9148107,297,2,1.46484375,-62.5,-19.53125,25.390625,0.0,0
1586282042.918717,297,2,4.8828125,-78.61328125,-24.4140625,33.203125,0.0,0
1586282042.9226232,297,2,13.18359375,-63.96484375,-49.8046875,33.69140625,0.0,0
1586282042.9265294,297,2,6.8359375,-43.9453125,-79.1015625,23.92578125,0.0,0
1586282042.9304357,297,2,9.765625,-46.875,-62.01171875,27.83203125,0.0,0
1586282042.934342,297,2,28.3203125,-38.0859375,-26.3671875,43.45703125,0.0,0
1586282042.9382482,297,2,32.2265625,-36.62109375,-21.484375,45.41015625,0.0,0
1586282042.9421544,297,2,32.2265625,-36.62109375,-29.296875,44.43359375,0.0,0
1586282042.9460607,297,2,31.73828125,-26.85546875,-14.16015625,56.640625,0.0,0
1586282042.949967,297,2,23.4375,-22.94921875,-25.87890625,48.33984375,0.0,0
1586282042.9538732,297,2,13.671875,-42.48046875,-53.22265625,35.64453125,0.0,0
1586282042.9577794,297,2,31.25,-42.48046875,-57.6171875,46.38671875,0.0,0
1586282042.9616857,297,2,49.31640625,-12.20703125,-38.0859375,45.8984375,0.0,0
1586282042.965592,297,2,42.96875,-31.25,-44.43359375,32.2265625,0.0,0
1586282042.9694982,297,2,38.57421875,-45.41015625,-52.734375,26.85546875,0.0,0
1586282042.9734044,297,2,43.9453125,-41.015625,-32.2265625,30.2734375,0.0,0
1586282042.9773107,297,2,47.36328125,-42.96875,-24.90234375,32.2265625,0.0,0
1586282042.981217,297,2,48.828125,-41.015625,-25.390625,30.76171875,0.0,0
1586282042.9851232,297,2,56.640625,-43.45703125,-29.296875,32.71484375,0.0,0
1586282042.9890294,297,2,64.453125,-43.9453125,-27.83203125,40.52734375,0.0,0
1586282042.9929357,297,2,62.98828125,-42.96875,-34.66796875,59.08203125,0.0,0
1586282042.996842,297,2,63.96484375,-42.48046875,-50.78125,70.80078125,0.0,0
1586282043.0007482,297,2,68.359375,-26.3671875,-51.26953125,67.3828125,0.0,0
1586282043.0046544,297,2,64.94140625,-40.52734375,-40.0390625,62.98828125,0.0,0
1586282043.0085607,297,2,60.05859375,-51.7578125,-34.1796875,64.94140625,0.0,0
1586282043.012467,297,2,65.91796875,-34.1796875,-45.8984375,62.98828125,0.0,0
1586282043.0163732,297,2,60.05859375,-45.8984375,-38.57421875,59.5703125,0.0,0
1586282043.0202794,297,2,46.875,-45.8984375,-19.53125,44.43359375,0.0,0
1586282043.0241857,297,2,36.1328125,-22.4609375,-19.04296875,29.78515625,0.0,0
1586282043.028092,297,2,26.85546875,-23.92578125,-22.4609375,28.80859375,0.0,0
1586282043.0319982,297,2,21.97265625,-29.78515625,-39.0625,35.64453125,0.0,0
1586282043.0359044,297,2,23.92578125,-30.2734375,-41.50390625,44.921875,0.0,0
1586282043.0398107,297,2,33.69140625,-42.48046875,-23.4375,43.9453125,0.0,0
1586282043.043717,297,2,40.52734375,-27.83203125,-15.625,39.55078125,0.0,0
1586282043.0476232,297,2,40.0390625,-16.6015625,-25.390625,36.1328125,0.0,0
1586282043.0515294,297,2,37.109375,-18.06640625,-38.0859375,28.80859375,0.0,0
1586282043.0554357,297,2,39.55078125,-40.52734375,-54.6875,25.390625,0.0,0
1586282043.059342,297,2,49.8046875,-74.21875,-53.7109375,31.73828125,0.0,0
1586282043.0632482,297,2,39.55078125,-43.45703125,-32.71484375,35.15625,0.0,0
1586282043.0671544,297,2,26.3671875,-7.8125,-56.15234375,30.2734375,0.0,0
1586282043.0710607,297,2,19.53125,-20.01953125,-70.80078125,22.4609375,0.0,0
1586282043.074967,297,2,18.06640625,-23.4375,-44.43359375,24.4140625,0.0,0
1586282043.0788732,297,2,30.2734375,-16.6015625,-30.2734375,25.390625,0.0,0
1586282043.0827794,297,2,27.83203125,-24.4140625,-21.97265625,26.3671875,0.0,0
1586282043.0866857,297,2,10.25390625,-40.0390625,-27.83203125,16.11328125,0.0,0
1586282043.090592,297,2,14.16015625,-42.48046875,-24.4140625,12.20703125,0.0,0
1586282043.0944982,297,2,31.73828125,-20.01953125,-26.85546875,21.484375,0.0,0
1586282043.0984044,297,2,33.69140625,-23.4375,-45.41015625,19.53125,0.0,0
1586282043.1023107,297,2,19.04296875,-41.015625,-39.55078125,19.53125,0.0,0
1586282043.106217,297,2,4.8828125,-36.1328125,-28.3203125,10.7421875,0.0,0
1586282043.1101232,297,2,15.625,-23.4375,-40.0390625,3.90625,0.0,0
1586282043.1140294,297,2,20.5078125,-15.625,-42.96875,22.4609375,0.0,0
1586282043.1179357,297,2,10.25390625,-19.53125,-45.41015625,27.34375,0.0,0
1586282043.121842,297,2,13.18359375,-35.64453125,-48.828125,11.71875,0.0,0
1586282043.1257482,297,2,12.6953125,-42.96875,-36.1328125,6.34765625,0.0,0
1586282043.1296544,297,2,-10.7421875,-39.55078125,-31.25,-1.46484375,0.0,0
1586282043.1335607,297,2,-0.48828125,-22.94921875,-33.203125,9.765625,0.0,0
1586282043.137467,297,2,15.625,-23.4375,-35.64453125,24.90234375,0.0,0
1586282043.1413732,297,2,6.8359375,-29.296875,-26.85546875,21.484375,0.0,0
1586282043.1452794,297,2,-0.9765625,-35.64453125,-25.87890625,22.94921875,0.0,0
1586282043.1491857,297,2,-0.48828125,-44.921875,-54.6875,14.6484375,0.0,0
1586282043.153092,297,2,4.39453125,-33.203125,-51.7578125,4.8828125,0.0,0
1586282043.1569982,297,2,7.8125,-27.34375,-37.59765625,-2.44140625,0.0,0
1586282043.1609044,297,2,-6.8359375,-29.296875,-40.52734375,-7.8125,0.0,0
1586282043.1648107,297,2,-9.27734375,-40.52734375,-20.01953125,-14.16015625,0.0,0
1586282043.168717,297,2,6.8359375,-50.29296875,-5.37109375,-5.859375,0.0,0
1586282043.1726232,297,2,11.71875,-38.0859375,-25.390625,-2.9296875,0.0,0
1586282043.1765294,297,2,9.27734375,-27.34375,-51.7578125,-7.8125,0.0,0
1586282043.1804357,297,2,0.9765625,-23.92578125,-48.828125,-6.8359375,0.0,0
1586282043.184342,297,2,-12.6953125,-28.80859375,-37.109375,-13.671875,0.0,0
1586282043.1882482,297,2,-11.23046875,-26.85546875,-36.62109375,-14.16015625,0.0,0
1586282043.1921544,297,2,-8.7890625,-18.06640625,-49.8046875,-21.484375,0.0,0
1586282043.1960607,297,2,2.44140625,-14.16015625,-44.43359375,-17.08984375,0.0,0
1586282043.199967,297,2,10.7421875,-19.53125,-20.99609375,-13.18359375,0.0,0
1586282043.2038732,297,2,-6.34765625,-28.3203125,-33.203125,-16.6015625,0.0,0
1586282043.2077794,297,2,-14.16015625,-29.78515625,-41.015625,-2.44140625,0.0,0
1586282043.2116857,297,2,-11.23046875,-37.59765625,-34.66796875,0.0,0.0,0
1586282043.215592,297,2,-9.27734375,-45.8984375,-48.828125,-9.765625,0.0,0
1586282043.2194982,297,2,-17.08984375,-34.66796875,-53.22265625,-10.25390625,0.0,0
1586282043.2234044,297,2,-27.83203125,-22.94921875,-33.69140625,-18.06640625,0.0,0
1586282043.2273107,297,2,-36.1328125,-13.18359375,-25.87890625,-23.4375,0.0,0
1586282043.231217,297,2,-36.1328125,-22.94921875,-46.38671875,-9.765625,0.0,0
1586282043.2351232,297,2,-36.1328125,-35.64453125,-56.640625,-7.8125,0.0,0
1586282043.2390294,297,2,-9.765625,-26.85546875,-27.83203125,-4.39453125,0.0,0
1586282043.2429357,297,2,-7.32421875,-39.55078125,-24.4140625,-4.39453125,0.0,0
1586282043.246842,297,2,-19.53125,-71.77734375,-37.59765625,-8.30078125,0.0,0
1586282043.2507482,297,2,-5.37109375,-60.546875,-29.78515625,-1.953125,0.0,0
1586282043.2546544,297,2,-4.39453125,-18.5546875,-31.25,-4.8828125,0.0,0
1586282043.2585607,297,2,-12.20703125,-8.7890625,-28.3203125,-7.32421875,0.0,0
1586282043.262467,297,2,-16.6015625,-21.484375,-20.01953125,-24.90234375,0.0,0
1586282043.2663732,297,2,-20.01953125,-20.01953125,-17.08984375,-34.66796875,0.0,0
1586282043.2702794,297,2,-25.87890625,-21.97265625,-29.78515625,-33.203125,0.0,0
1586282043.2741857,297,2,-24.90234375,-39.55078125,-31.73828125,-18.5546875,0.0,0
1586282043.278092,297,2,-21.484375,-49.8046875,-32.71484375,-6.34765625,0.0,0
1586282043.2819982,297,2,-16.11328125,-46.875,-57.12890625,-22.4609375,0.0,0
1586282043.2859044,297,2,-21.484375,-40.52734375,-63.96484375,-29.78515625,0.0,0
1586282043.2898107,297,2,-19.53125,-36.62109375,-41.015625,-23.92578125,0.0,0
1586282043.293717,297,2,0.0,-41.9921875,-30.2734375,-21.97265625,0.0,0
1586282043.2976232,297,2,-4.39453125,-36.62109375,-29.296875,-19.04296875,0.0,0
1586282043.3015294,297,2,-23.4375,-22.4609375,-22.94921875,-21.484375,0.0,0
1586282043.3054357,297,2,-25.390625,-25.87890625,-33.203125,-30.76171875,0.0,0
1586282043.309342,297,2,-19.53125,-37.59765625,-33.69140625,-26.85546875,0.0,0
1586282043.3132482,297,2,-11.71875,-47.8515625,-49.8046875,-10.7421875,0.0,0
1586282043.3171544,297,2,-15.13671875,-43.9453125,-57.12890625,-4.8828125,0.0,0
1586282043.3210607,297,2,-20.99609375,-21.97265625,-41.50390625,-2.9296875,0.0,0
1586282043.324967,297,2,-33.69140625,-20.01953125,-42.96875,-21.97265625,0.0,0
1586282043.3288732,297,2,-34.1796875,-31.73828125,-29.296875,-33.203125,0.0,0
1586282043.3327794,297,2,-13.18359375,-23.4375,-30.2734375,-19.04296875,0.0,0
1586282043.3366857,297,2,-5.859375,-31.73828125,-46.875,-10.7421875,0.0,0
1586282043.340592,297,2,-6.34765625,-42.48046875,-23.4375,-10.25390625,0.0,0
1586282043.3444982,297,2,-18.5546875,-36.62109375,-22.4609375,-12.20703125,0.0,0
1586282043.3484044,297,2,-29.296875,-27.83203125,-55.17578125,-20.01953125,0.0,0
1586282043.3523107,297,2,-20.99609375,-23.92578125,-45.8984375,-20.01953125,0.0,0
1586282043.356217,297,2,-5.37109375,-37.59765625,-21.484375,-5.859375,0.0,0
1586282043.3601232,297,2,-10.25390625,-41.9921875,-19.53125,-1.953125,0.0,0
1586282043.3640294,297,2,-33.69140625,-35.15625,-31.73828125,-6.34765625,0.0,0
1586282043.3679357,297,2,-23.4375,-29.78515625,-35.15625,-4.8828125,0.0,0
1586282043.371842,297,2,-17.578125,-29.78515625,-41.9921875,-21.484375,0.0,0
1586282043.3757482,297,2,-11.71875,-24.4140625,-41.015625,-26.85546875,0.0,0
1586282043.3796544,297,2,-11.71875,-20.5078125,-40.52734375,-19.53125,0.0,0
1586282043.3835607,297,2,-16.6015625,-19.04296875,-48.33984375,-21.97265625,0.0,0
1586282043.387467,297,2,-14.6484375,-12.6953125,-62.98828125,-29.78515625,0.0,0
1586282043.3913732,297,2,-15.13671875,-18.5546875,-66.40625,-28.80859375,0.0,0
1586282043.3952794,297,2,-11.71875,-26.85546875,-22.94921875,-16.6015625,0.0,0
1586282043.3991857,297,2,-7.8125,-28.80859375,8.30078125,-26.3671875,0.0,0
1586282043.403092,297,2,-14.6484375,-32.71484375,-13.671875,-31.25,0.0,0
1586282043.4069982,297,2,-19.53125,-34.1796875,-40.0390625,-23.92578125,0.0,0
1586282043.4109044,297,2,-11.71875,-42.48046875,-33.203125,-13.671875,0.0,0
1586282043.4148107,297,2,-23.92578125,-40.0390625,-28.80859375,-6.8359375,0.0,0
1586282043.418717,297,2,-28.80859375,-46.875,-31.73828125,-16.11328125,0.0,0
1586282043.4226232,297,2,-14.6484375,-33.69140625,-29.78515625,-15.13671875,0.0,0
1586282043.4265294,297,2,-18.06640625,-9.27734375,-46.38671875,-18.5546875,0.0,0
1586282043.4304357,297,2,-18.5546875,-21.97265625,-51.26953125,-31.25,0.0,0
1586282043.434342,297,2,-17.08984375,-34.1796875,-31.73828125,-26.85546875,0.0,0
1586282043.4382482,297,2,-28.3203125,-23.4375,-27.34375,-25.390625,0.0,0
1586282043.4421544,297,2,-36.62109375,-18.5546875,-29.78515625,-30.76171875,0.0,0
1586282043.4460607,297,2,-30.76171875,-20.5078125,-19.04296875,-17.08984375,0.0,0
1586282043.449967,297,2,-28.80859375,-19.53125,-4.39453125,-11.23046875,0.0,0
1586282043.4538732,297,2,-25.390625,-31.25,-14.16015625,-12.20703125,0.0,0
1586282043.4577794,297,2,-20.99609375,-46.875,-25.390625,-5.859375,0.0,0
1586282043.4616857,297,2,-29.296875,-48.828125,-23.4375,-14.16015625,0.0,0
1586282043.465592,297,2,-28.80859375,-29.78515625,-20.99609375,-29.296875,0.0,0
1586282043.4694982,297,2,-35.64453125,-22.94921875,-19.04296875,-21.97265625,0.0,0
1586282043.4734044,297,2,-30.2734375,-34.66796875,-28.3203125,-6.34765625,0.0,0
1586282043.4773107,297,2,-8.7890625,-22.94921875,-33.69140625,-0.48828125,0.0,0
1586282043.481217,297,2,-11.23046875,-8.30078125,-38.0859375,-17.578125,0.0,0
1586282043.4851232,297,2,-13.671875,-23.4375,-47.36328125,-23.92578125,0.0,0
1586282043.4890294,297,2,-14.16015625,-30.2734375,-33.203125,-14.16015625,0.0,0
1586282043.4929357,297,2,-12.6953125,-24.4140625,-26.3671875,-8.7890625,0.0,0
1586282043.496842,297,2,-5.37109375,-16.11328125,-35.64453125,0.9765625,0.0,0
1586282043.5007482,297,2,-7.32421875,-13.671875,-39.0625,5.859375,0.0,0
1586282043.5046544,297,2,-19.04296875,-12.6953125,-24.4140625,-7.8125,0.0,0
1586282043.5085607,297,2,-29.296875,-9.765625,-21.484375,-21.97265625,0.0,0
1586282043.512467,297,2,-28.80859375,-18.5546875,-30.76171875,-27.83203125,0.0,0
1586282043.5163732,297,2,-19.04296875,-27.34375,-29.296875,-20.5078125,0.0,0
1586282043.5202794,297,2,-19.04296875,-35.15625,-24.90234375,-21.484375,0.0,0
1586282043.5241857,298,2,-26.85546875,-50.78125,-26.3671875,-30.2734375,0.0,0
1586282043.528092,298,2,-13.18359375,-33.203125,-33.203125,-24.4140625,0.0,0
1586282043.5319982,298,2,-5.37109375,-10.25390625,-22.94921875,-11.71875,0.0,0
1586282043.5359044,298,2,-14.6484375,-24.90234375,-23.92578125,-9.765625,0.0,0
1586282043.5398107,298,2,-15.13671875,-31.25,-38.0859375,-17.578125,0.0,0
1586282043.543717,298,2,-9.765625,-24.4140625,-24.90234375,-2.44140625,0.0,0
1586282043.5476232,298,2,-19.04296875,-26.3671875,-28.3203125,-1.953125,0.0,0
1586282043.5515294,298,2,-21.97265625,-38.57421875,-49.31640625,-39.55078125,0.0,0
1586282043.5554357,298,2,-2.44140625,-38.57421875,-49.31640625,-31.73828125,0.0,0
1586282043.559342,298,2,-0.48828125,-16.11328125,-12.20703125,-10.7421875,0.0,0
1586282043.5632482,298,2,-23.92578125,-17.08984375,-4.8828125,-18.5546875,0.0,0
1586282043.5671544,298,2,-27.34375,-24.4140625,-33.69140625,-20.5078125,0.0,0
1586282043.5710607,298,2,-28.80859375,-20.5078125,-40.0390625,-29.296875,0.0,0
1586282043.574967,298,2,-29.296875,-16.11328125,-33.203125,-30.76171875,0.0,0
1586282043.5788732,298,2,-26.3671875,-29.78515625,-38.57421875,-28.80859375,0.0,0
1586282043.5827794,298,2,-36.62109375,-33.203125,-49.31640625,-41.015625,0.0,0
1586282043.5866857,298,2,-43.45703125,-26.85546875,-41.9921875,-71.77734375,0.0,0
1586282043.590592,298,2,-38.0859375,-39.0625,-35.15625,-57.6171875,0.0,0
1586282043.5944982,298,2,-26.85546875,-32.71484375,-32.71484375,-33.203125,0.0,0
1586282043.5984044,298,2,-37.109375,-26.85546875,-38.0859375,-46.38671875,0.0,0
1586282043.6023107,298,2,-62.5,-34.66796875,-40.0390625,-48.33984375,0.0,0
1586282043.606217,298,2,-51.7578125,-34.1796875,-26.85546875,-41.015625,0.0,0
1586282043.6101232,298,2,-37.59765625,-34.1796875,-26.3671875,-52.24609375,0.0,0
1586282043.6140294,298,2,-36.1328125,-35.15625,-31.73828125,-47.36328125,0.0,0
1586282043.6179357,298,2,-29.296875,-27.83203125,-30.2734375,-29.78515625,0.0,0
1586282043.621842,298,2,-53.7109375,-27.83203125,-29.78515625,-43.9453125,0.0,0
1586282043.6257482,298,2,-80.078125,-33.203125,-33.69140625,-69.3359375,0.0,0
1586282043.6296544,298,2,-85.44921875,-32.2265625,-29.78515625,-78.125,0.0,0
1586282043.6335607,298,2,-92.7734375,-30.76171875,-23.92578125,-80.078125,0.0,0
1586282043.637467,298,2,-104.00390625,-32.2265625,-23.92578125,-105.46875,0.0,0
1586282043.6413732,298,2,-130.859375,-28.80859375,-14.16015625,-131.34765625,0.0,0
1586282043.6452794,298,2,-156.25,-23.4375,-1.953125,-147.94921875,0.0,0
1586282043.6491857,298,2,-167.48046875,-15.13671875,7.32421875,-162.59765625,0.0,0
1586282043.653092,298,2,-174.31640625,-12.20703125,-0.48828125,-172.8515625,0.0,0
1586282043.6569982,298,2,-181.640625,-16.6015625,-11.71875,-179.6875,0.0,0
1586282043.6609044,298,2,-185.05859375,-15.13671875,-3.41796875,-181.640625,0.0,0
1586282043.6648107,298,2,-208.49609375,-8.7890625,3.90625,-203.61328125,0.0,0
1586282043.668717,298,2,-223.14453125,-8.30078125,-1.953125,-216.30859375,0.0,0
1586282043.6726232,298,2,-198.2421875,-15.625,-9.27734375,-190.4296875,0.0,0
1586282043.6765294,298,2,-179.19921875,-36.1328125,-11.71875,-182.12890625,0.0,0
1586282043.6804357,298,2,-187.01171875,-29.78515625,-8.30078125,-185.546875,0.0,0
1586282043.684342,298,2,-197.75390625,-15.13671875,3.41796875,-176.26953125,0.0,0
1586282043.6882482,298,2,-187.01171875,-15.625,3.41796875,-164.0625,0.0,0
1586282043.6921544,298,2,-165.0390625,-5.37109375,-2.44140625,-152.34375,0.0,0
1586282043.6960607,298,2,-132.32421875,0.0,-3.41796875,-124.51171875,0.0,0
1586282043.699967,298,2,-110.3515625,-17.08984375,-9.765625,-96.19140625,0.0,0
1586282043.7038732,298,2,-113.28125,-24.4140625,-30.2734375,-103.02734375,0.0,0
1586282043.7077794,298,2,-103.02734375,-15.13671875,-57.6171875,-93.26171875,0.0,0
1586282043.7116857,298,2,-75.68359375,-24.90234375,-41.50390625,-64.94140625,0.0,0
1586282043.715592,298,2,-50.29296875,-26.85546875,-19.53125,-45.8984375,0.0,0
1586282043.7194982,298,2,-41.50390625,-25.390625,-44.921875,-37.59765625,0.0,0
1586282043.7234044,298,2,-36.1328125,-33.203125,-46.38671875,-24.90234375,0.0,0
1586282043.7273107,298,2,-36.1328125,-40.52734375,-40.0390625,-28.3203125,0.0,0
1586282043.731217,298,2,-26.3671875,-33.69140625,-46.875,-27.83203125,0.0,0
1586282043.7351232,298,2,-9.765625,-24.90234375,-32.2265625,-2.9296875,0.0,0
1586282043.7390294,298,2,2.44140625,-37.59765625,-26.3671875,4.39453125,0.0,0
1586282043.7429357,298,2,9.27734375,-38.0859375,-44.43359375,-0.48828125,0.0,0
1586282043.746842,298,2,6.8359375,-37.59765625,-62.5,4.8828125,0.0,0
1586282043.7507482,298,2,15.625,-28.80859375,-58.59375,18.5546875,0.0,0
1586282043.7546544,298,2,24.90234375,-14.6484375,-45.41015625,26.3671875,0.0,0
1586282043.7585607,298,2,25.390625,-26.3671875,-41.9921875,27.83203125,0.0,0
1586282043.762467,298,2,22.94921875,-25.87890625,-35.64453125,30.76171875,0.0,0
1586282043.7663732,298,2,24.4140625,-20.01953125,-16.11328125,28.3203125,0.0,0
1586282043.7702794,298,2,28.80859375,-26.3671875,-20.01953125,22.4609375,0.0,0
1586282043.7741857,298,2,37.109375,-36.62109375,-48.33984375,35.64453125,0.0,0
1586282043.778092,298,2,38.57421875,-47.8515625,-60.05859375,43.9453125,0.0,0
1586282043.7819982,298,2,37.59765625,-53.22265625,-48.33984375,44.43359375,0.0,0
1586282043.7859044,298,2,44.43359375,-50.78125,-33.69140625,45.8984375,0.0,0
1586282043.7898107,298,2,51.7578125,-42.48046875,-39.55078125,56.15234375,0.0,0
1586282043.793717,298,2,55.17578125,-47.8515625,-49.31640625,58.59375,0.0,0
1586282043.7976232,298,2,54.19921875,-63.96484375,-43.45703125,53.22265625,0.0,0
1586282043.8015294,298,2,36.62109375,-39.55078125,-31.73828125,54.6875,0.0,0
1586282043.8054357,298,2,27.83203125,-20.01953125,-22.94921875,51.7578125,0.0,0
1586282043.809342,298,2,36.62109375,-28.3203125,-43.9453125,42.48046875,0.0,0
1586282043.8132482,298,2,43.9453125,-29.78515625,-51.7578125,48.828125,0.0,0
1586282043.8171544,298,2,48.828125,-28.3203125,-35.64453125,64.94140625,0.0,0
1586282043.8210607,298,2,42.96875,-31.25,-40.0390625,60.546875,0.0,0
1586282043.824967,298,2,35.15625,-46.875,-46.875,37.59765625,0.0,0
1586282043.8288732,298,2,41.50390625,-45.8984375,-41.9921875,54.19921875,0.0,0
1586282043.8327794,298,2,41.9921875,-36.62109375,-37.59765625,63.4765625,0.0,0
1586282043.8366857,298,2,44.921875,-54.19921875,-32.71484375,49.31640625,0.0,0
1586282043.840592,298,2,43.9453125,-55.17578125,-24.4140625,44.43359375,0.0,0
1586282043.8444982,298,2,28.3203125,-32.2265625,-30.2734375,35.64453125,0.0,0
1586282043.8484044,298,2,28.3203125,-11.23046875,-49.31640625,42.96875,0.0,0
1586282043.8523107,298,2,40.52734375,-12.6953125,-54.6875,45.41015625,0.0,0
1586282043.856217,298,2,44.921875,-29.78515625,-59.08203125,30.76171875,0.0,0
1586282043.8601232,298,2,39.0625,-27.34375,-40.0390625,30.2734375,0.0,0
1586282043.8640294,298,2,28.3203125,-31.25,-17.08984375,31.73828125,0.0,0
1586282043.8679357,298,2,18.06640625,-39.55078125,-26.85546875,14.6484375,0.0,0
1586282043.871842,298,2,28.80859375,-32.71484375,-44.43359375,8.7890625,0.0,0
1586282043.8757482,298,2,28.3203125,-41.50390625,-34.66796875,29.296875,0.0,0
1586282043.8796544,298,2,11.71875,-59.5703125,-26.3671875,28.80859375,0.0,0
1586282043.8835607,298,2,20.5078125,-62.01171875,-57.12890625,7.32421875,0.0,0
1586282043.887467,298,2,18.5546875,-34.66796875,-72.265625,7.8125,0.0,0
1586282043.8913732,298,2,18.5546875,-16.6015625,-54.6875,16.11328125,0.0,0
1586282043.8952794,298,2,33.69140625,-23.4375,-48.33984375,21.484375,0.0,0
1586282043.8991857,298,2,22.4609375,-24.4140625,-50.29296875,21.484375,0.0,0
1586282043.903092,298,2,5.37109375,-26.85546875,-49.31640625,18.06640625,0.0,0
1586282043.9069982,298,2,0.9765625,-42.96875,-75.68359375,9.765625,0.0,0
1586282043.9109044,298,2,1.953125,-53.7109375,-55.17578125,22.4609375,0.0,0
1586282043.9148107,298,2,10.25390625,-41.015625,-22.4609375,33.69140625,0.0,0
1586282043.918717,298,2,11.23046875,-25.87890625,-32.71484375,27.34375,0.0,0
1586282043.9226232,298,2,2.44140625,-30.2734375,-30.76171875,28.3203125,0.0,0
1586282043.9265294,298,2,-5.37109375,-27.34375,-25.87890625,13.671875,0.0,0
1586282043.9304357,298,2,-2.9296875,-22.4609375,-29.78515625,11.71875,0.0,0
1586282043.934342,298,2,7.32421875,-28.3203125,-49.31640625,17.08984375,0.0,0
1586282043.9382482,298,2,7.8125,-39.0625,-46.875,17.578125,0.0,0
1586282043.9421544,298,2,-1.46484375,-43.9453125,-39.0625,3.90625,0.0,0
1586282043.9460607,298,2,-11.71875,-45.41015625,-31.73828125,-4.39453125,0.0,0
1586282043.949967,298,2,-6.34765625,-38.57421875,-32.71484375,-4.39453125,0.0,0
1586282043.9538732,298,2,0.0,-24.4140625,-60.546875,-6.34765625,0.0,0
1586282043.9577794,298,2,4.39453125,-28.80859375,-61.5234375,-2.44140625,0.0,0
1586282043.9616857,298,2,-4.39453125,-27.83203125,-51.26953125,-4.39453125,0.0,0
1586282043.965592,298,2,-8.30078125,-24.4140625,-42.48046875,-5.37109375,0.0,0
1586282043.9694982,298,2,-5.859375,-36.1328125,-31.25,-8.7890625,0.0,0
1586282043.9734044,298,2,-4.39453125,-52.734375,-33.203125,-11.23046875,0.0,0
1586282043.9773107,298,2,-0.48828125,-62.98828125,-51.26953125,-6.34765625,0.0,0
1586282043.981217,298,2,11.23046875,-36.62109375,-46.875,4.8828125,0.0,0
1586282043.9851232,298,2,12.6953125,-9.27734375,-22.4609375,3.90625,0.0,0
1586282043.9890294,298,2,3.41796875,-20.99609375,-40.52734375,-9.27734375,0.0,0
1586282043.9929357,298,2,9.27734375,-31.25,-47.36328125,-1.46484375,0.0,0
1586282043.996842,298,2,15.625,-25.390625,-21.484375,18.06640625,0.0,0
1586282044.0007482,298,2,6.8359375,-23.92578125,-19.53125,12.6953125,0.0,0
1586282044.0046544,298,2,-9.765625,-18.06640625,-28.3203125,-0.48828125,0.0,0
1586282044.0085607,298,2,-17.08984375,-31.25,-41.9921875,-8.30078125,0.0,0
1586282044.012467,298,2,-10.7421875,-48.33984375,-48.33984375,-9.765625,0.0,0
1586282044.0163732,298,2,-9.27734375,-32.2265625,-40.0390625,-5.859375,0.0,0
1586282044.0202794,298,2,-21.97265625,-38.0859375,-39.55078125,-7.8125,0.0,0
1586282044.0241857,298,2,-30.2734375,-49.31640625,-40.52734375,-16.6015625,0.0,0
1586282044.028092,298,2,-24.4140625,-38.57421875,-42.96875,-11.71875,0.0,0
1586282044.0319982,298,2,-17.578125,-34.1796875,-43.9453125,-4.8828125,0.0,0
1586282044.0359044,298,2,-17.08984375,-21.97265625,-45.8984375,-8.30078125,0.0,0
1586282044.0398107,298,2,-22.94921875,-23.4375,-39.0625,-17.578125,0.0,0
1586282044.043717,298,2,-40.52734375,-37.59765625,-34.1796875,-33.69140625,0.0,0
1586282044.0476232,298,2,-50.29296875,-41.015625,-32.2265625,-32.71484375,0.0,0
1586282044.0515294,298,2,-36.1328125,-35.64453125,-47.8515625,-25.390625,0.0,0
1586282044.0554357,298,2,-21.97265625,-30.2734375,-41.9921875,-19.04296875,0.0,0
1586282044.059342,298,2,-22.94921875,-18.06640625,-22.94921875,-16.11328125,0.0,0
1586282044.0632482,298,2,-29.78515625,-15.13671875,-35.15625,-21.484375,0.0,0
1586282044.0671544,298,2,-33.203125,-24.90234375,-48.828125,-30.2734375,0.0,0
1586282044.0710607,298,2,-22.4609375,-35.64453125,-53.22265625,-16.6015625,0.0,0
1586282044.074967,298,2,-6.8359375,-38.57421875,-53.22265625,-5.859375,0.0,0
1586282044.0788732,298,2,-4.39453125,-26.85546875,-54.19921875,-10.25390625,0.0,0
1586282044.0827794,298,2,-10.25390625,-27.34375,-53.7109375,-16.11328125,0.0,0
1586282044.0866857,298,2,-14.6484375,-29.296875,-50.29296875,-18.5546875,0.0,0
1586282044.090592,298,2,-17.578125,-23.92578125,-52.734375,-21.97265625,0.0,0
1586282044.0944982,298,2,-6.34765625,-26.3671875,-40.52734375,-16.6015625,0.0,0
1586282044.0984044,298,2,-3.90625,-27.34375,-30.76171875,0.9765625,0.0,0
1586282044.1023107,298,2,-12.6953125,-23.4375,-29.296875,-4.8828125,0.0,0
1586282044.106217,298,2,-10.25390625,-7.32421875,-46.38671875,-14.16015625,0.0,0
1586282044.1101232,298,2,-0.9765625,-14.6484375,-56.640625,-18.5546875,0.0,0
1586282044.1140294,298,2,1.46484375,-32.2265625,-43.45703125,-10.7421875,0.0,0
1586282044.1179357,298,2,1.46484375,-30.76171875,-26.85546875,5.859375,0.0,0
1586282044.121842,298,2,-6.34765625,-32.2265625,-25.390625,-4.39453125,0.0,0
1586282044.1257482,298,2,-8.30078125,-15.625,-36.1328125,-4.39453125,0.0,0
1586282044.1296544,298,2,-1.953125,-6.34765625,-45.8984375,3.90625,0.0,0
1586282044.1335607,298,2,4.8828125,-29.296875,-49.31640625,-6.34765625,0.0,0
1586282044.137467,298,2,0.9765625,-45.8984375,-61.03515625,-12.6953125,0.0,0
1586282044.1413732,298,2,-3.41796875,-41.50390625,-75.68359375,-4.8828125,0.0,0
1586282044.1452794,298,2,-3.90625,-26.3671875,-61.5234375,0.0,0.0,0
1586282044.1491857,298,2,-2.44140625,-20.01953125,-25.390625,2.44140625,0.0,0
1586282044.153092,298,2,7.32421875,-41.015625,-5.859375,19.53125,0.0,0
1586282044.1569982,298,2,8.30078125,-58.10546875,-22.94921875,22.94921875,0.0,0
1586282044.1609044,298,2,-3.90625,-40.0390625,-56.15234375,6.8359375,0.0,0
1586282044.1648107,298,2,-14.6484375,-15.625,-59.5703125,-6.34765625,0.0,0
1586282044.168717,298,2,-12.20703125,-11.71875,-45.8984375,-25.390625,0.0,0
1586282044.1726232,298,2,-10.7421875,-25.390625,-38.0859375,-25.390625,0.0,0
1586282044.1765294,298,2,-5.859375,-38.0859375,-26.85546875,-8.7890625,0.0,0
1586282044.1804357,298,2,-9.27734375,-41.9921875,-30.2734375,-12.6953125,0.0,0
1586282044.184342,298,2,-20.01953125,-36.1328125,-34.66796875,-16.6015625,0.0,0
1586282044.1882482,298,2,-16.11328125,-26.85546875,-27.83203125,-9.27734375,0.0,0
1586282044.1921544,298,2,-9.27734375,-31.25,-24.90234375,-9.27734375,0.0,0
1586282044.1960607,298,2,-0.9765625,-33.203125,-28.80859375,-1.46484375,0.0,0
1586282044.199967,298,2,4.39453125,-22.4609375,-55.6640625,-7.8125,0.0,0
1586282044.2038732,298,2,-17.08984375,-19.53125,-67.3828125,-36.1328125,0.0,0
1586282044.2077794,298,2,-30.76171875,-17.08984375,-48.33984375,-41.015625,0.0,0
1586282044.2116857,298,2,-19.04296875,-21.97265625,-58.10546875,-33.69140625,0.0,0
1586282044.215592,298,2,-9.27734375,-25.87890625,-63.4765625,-33.203125,0.0,0
1586282044.2194982,298,2,-3.90625,-20.99609375,-48.828125,-23.92578125,0.0,0
1586282044.2234044,298,2,-14.6484375,-25.87890625,-53.7109375,-26.3671875,0.0,0
1586282044.2273107,298,2,-23.92578125,-24.4140625,-56.640625,-33.203125,0.0,0
1586282044.231217,298,2,-18.5546875,-27.83203125,-44.921875,-28.80859375,0.0,0
1586282044.2351232,298,2,-12.6953125,-41.50390625,-41.50390625,-19.04296875,0.0,0
1586282044.2390294,298,2,-10.7421875,-31.73828125,-37.109375,-14.16015625,0.0,0
1586282044.2429357,298,2,-18.5546875,-15.13671875,-41.015625,-19.53125,0.0,0
1586282044.246842,298,2,-18.06640625,-21.97265625,-60.546875,-17.08984375,0.0,0
1586282044.2507482,298,2,-23.92578125,-41.50390625,-66.40625,-14.6484375,0.0,0
1586282044.2546544,298,2,-31.25,-40.0390625,-47.36328125,-14.16015625,0.0,0
1586282044.2585607,298,2,-16.11328125,-28.3203125,-38.57421875,-12.20703125,0.0,0
1586282044.262467,298,2,-18.06640625,-28.80859375,-35.64453125,-30.2734375,0.0,0
1586282044.2663732,298,2,-31.73828125,-24.90234375,-19.53125,-43.45703125,0.0,0
1586282044.2702794,298,2,-24.4140625,-18.06640625,-33.203125,-34.1796875,0.0,0
1586282044.2741857,298,2,-15.13671875,-17.08984375,-56.15234375,-34.66796875,0.0,0
1586282044.278092,298,2,-9.27734375,-30.2734375,-57.12890625,-32.71484375,0.0,0
1586282044.2819982,298,2,-6.34765625,-29.296875,-46.875,-22.94921875,0.0,0
1586282044.2859044,298,2,-12.6953125,-23.4375,-35.15625,-33.203125,0.0,0
1586282044.2898107,298,2,-13.671875,-27.34375,-31.25,-46.875,0.0,0
1586282044.293717,298,2,2.44140625,-20.99609375,-36.1328125,-20.5078125,0.0,0
1586282044.2976232,298,2,6.34765625,-27.34375,-45.41015625,4.8828125,0.0,0
1586282044.3015294,298,2,3.90625,-48.828125,-54.19921875,-9.27734375,0.0,0
1586282044.3054357,298,2,-5.859375,-19.53125,-59.5703125,-21.97265625,0.0,0
1586282044.309342,298,2,-18.06640625,5.859375,-50.78125,-21.97265625,0.0,0
1586282044.3132482,298,2,-13.671875,-15.625,-35.64453125,-17.578125,0.0,0
1586282044.3171544,298,2,-12.6953125,-24.90234375,-21.97265625,-17.08984375,0.0,0
1586282044.3210607,298,2,-6.34765625,-12.6953125,-15.625,-3.90625,0.0,0
1586282044.324967,298,2,-6.34765625,-7.32421875,-35.64453125,6.34765625,0.0,0
1586282044.3288732,298,2,-17.08984375,-15.13671875,-51.7578125,2.44140625,0.0,0
1586282044.3327794,298,2,-21.97265625,-39.55078125,-45.8984375,-11.71875,0.0,0
1586282044.3366857,298,2,-22.94921875,-57.6171875,-39.55078125,-7.32421875,0.0,0
1586282044.340592,298,2,-26.85546875,-39.0625,-28.80859375,-4.39453125,0.0,0
1586282044.3444982,298,2,-33.69140625,-35.15625,-48.828125,-18.5546875,0.0,0
1586282044.3484044,298,2,-35.15625,-34.1796875,-60.05859375,-21.97265625,0.0,0
1586282044.3523107,298,2,-27.34375,-13.18359375,-38.0859375,-14.6484375,0.0,0
1586282044.356217,298,2,-8.30078125,-15.13671875,-23.4375,-0.48828125,0.0,0
1586282044.3601232,298,2,-10.25390625,-34.1796875,-45.41015625,-5.37109375,0.0,0
1586282044.3640294,298,2,-22.4609375,-29.78515625,-76.171875,-15.13671875,0.0,0
1586282044.3679357,298,2,-25.87890625,-42.96875,-42.48046875,-14.16015625,0.0,0
1586282044.371842,298,2,-26.3671875,-46.38671875,-17.08984375,-18.5546875,0.0,0
1586282044.3757482,298,2,-23.92578125,-34.66796875,-12.20703125,-21.484375,0.0,0
1586282044.3796544,298,2,-29.78515625,-31.25,-16.11328125,-20.01953125,0.0,0
1586282044.3835607,298,2,-42.96875,-20.01953125,-23.92578125,-29.296875,0.0,0
1586282044.387467,298,2,-41.9921875,-27.34375,-37.109375,-37.59765625,0.0,0
1586282044.3913732,298,2,-32.71484375,-28.80859375,-57.12890625,-28.3203125,0.0,0
1586282044.3952794,298,2,-21.484375,-21.484375,-52.24609375,-16.6015625,0.0,0
1586282044.3991857,298,2,-19.53125,-32.2265625,-47.8515625,-18.5546875,0.0,0
1586282044.403092,298,2,-29.296875,-42.48046875,-52.734375,-28.80859375,0.0,0
1586282044.4069982,298,2,-33.69140625,-36.1328125,-31.73828125,-34.66796875,0.0,0
1586282044.4109044,298,2,-25.390625,-47.8515625,-25.390625,-30.2734375,0.0,0
1586282044.4148107,298,2,-16.11328125,-33.69140625,-32.2265625,-17.578125,0.0,0
1586282044.418717,298,2,-13.18359375,-20.01953125,-15.625,-18.5546875,0.0,0
1586282044.4226232,298,2,-24.4140625,-20.99609375,-15.625,-24.90234375,0.0,0
1586282044.4265294,298,2,-28.80859375,-32.2265625,-33.69140625,-13.18359375,0.0,0
1586282044.4304357,298,2,-21.97265625,-28.3203125,-35.64453125,-4.8828125,0.0,0
1586282044.434342,298,2,-13.18359375,-17.578125,-16.6015625,-6.34765625,0.0,0
1586282044.4382482,298,2,-7.8125,-28.80859375,-14.6484375,-4.8828125,0.0,0
1586282044.4421544,298,2,-17.08984375,-28.80859375,-44.43359375,-12.6953125,0.0,0
1586282044.4460607,298,2,-22.4609375,-39.0625,-46.38671875,-11.71875,0.0,0
1586282044.449967,298,2,-22.4609375,-41.50390625,-31.25,-5.859375,0.0,0
1586282044.4538732,298,2,-18.5546875,-27.83203125,-26.3671875,-8.30078125,0.0,0
1586282044.4577794,298,2,-9.27734375,-38.57421875,-27.83203125,-10.7421875,0.0,0
1586282044.4616857,298,2,-18.5546875,-43.45703125,-41.50390625,-4.39453125,0.0,0
1586282044.465592,298,2,-31.25,-23.4375,-30.2734375,-4.8828125,0.0,0
1586282044.4694982,298,2,-32.2265625,-27.83203125,-18.06640625,-19.53125,0.0,0
1586282044.4734044,298,2,-23.4375,-54.6875,-25.87890625,-15.625,0.0,0
1586282044.4773107,298,2,-10.7421875,-39.55078125,-29.296875,-6.8359375,0.0,0
1586282044.481217,298,2,-12.20703125,-2.9296875,-25.390625,-6.34765625,0.0,0
1586282044.4851232,298,2,-21.484375,-2.9296875,-10.25390625,-18.5546875,0.0,0
1586282044.4890294,298,2,-17.08984375,-11.71875,-7.32421875,-27.83203125,0.0,0
1586282044.4929357,298,2,-13.671875,-21.484375,-34.66796875,-6.8359375,0.0,0
1586282044.496842,298,2,-24.90234375,-36.1328125,-52.734375,-8.7890625,0.0,0
1586282044.5007482,298,2,-26.85546875,-35.15625,-39.55078125,-18.5546875,0.0,0
1586282044.5046544,298,2,-28.80859375,-35.64453125,-24.4140625,-16.6015625,0.0,0
1586282044.5085607,298,2,-31.25,-40.0390625,-20.5078125,-16.11328125,0.0,0
1586282044.512467,298,2,-24.4140625,-24.4140625,-23.4375,-5.859375,0.0,0
1586282044.5163732,298,2,-15.13671875,-6.8359375,-57.6171875,-5.37109375,0.0,0
1586282044.5202794,298,2,-19.53125,-8.7890625,-50.78125,-5.37109375,0.0,0
1586282044.5241857,298,2,-30.76171875,-31.25,-6.34765625,-10.7421875,0.0,0
1586282044.528092,298,2,-26.3671875,-49.31640625,-4.39453125,-19.53125,0.0,0
1586282044.5319982,298,2,-21.97265625,-31.73828125,-13.18359375,-16.11328125,0.0,0
1586282044.5359044,298,2,-30.76171875,-19.04296875,-25.87890625,-6.8359375,0.0,0
1586282044.5398107,298,2,-36.1328125,-27.34375,-35.64453125,-12.6953125,0.0,0
1586282044.543717,298,2,-40.0390625,-36.62109375,-30.2734375,-24.4140625,0.0,0
1586282044.5476232,298,2,-34.66796875,-31.25,-20.01953125,-23.4375,0.0,0
1586282044.5515294,298,2,-21.484375,-25.87890625,-20.5078125,-20.01953125,0.0,0
1586282044.5554357,298,2,2.44140625,-20.01953125,-36.1328125,-11.23046875,0.0,0
1586282044.559342,298,2,11.71875,-12.20703125,-43.45703125,0.9765625,0.0,0
1586282044.5632482,298,2,-24.4140625,-23.92578125,-48.33984375,-20.99609375,0.0,0
1586282044.5671544,298,2,-35.15625,-27.83203125,-44.921875,-33.69140625,0.0,0
1586282044.5710607,298,2,-23.4375,-28.80859375,-20.99609375,-20.5078125,0.0,0
1586282044.574967,298,2,-21.484375,-34.66796875,-10.7421875,-17.08984375,0.0,0
1586282044.5788732,298,2,-22.4609375,-36.62109375,-25.390625,-11.71875,0.0,0
1586282044.5827794,298,2,-31.73828125,-37.59765625,-42.96875,-4.39453125,0.0,0
1586282044.5866857,298,2,-30.76171875,-40.52734375,-47.36328125,-13.18359375,0.0,0
1586282044.590592,298,2,-11.71875,-39.0625,-36.1328125,0.0,0.0,0
1586282044.5944982,298,2,-0.9765625,-28.80859375,-32.2265625,14.16015625,0.0,0
1586282044.5984044,298,2,-6.34765625,-26.85546875,-23.92578125,-0.48828125,0.0,0
1586282044.6023107,298,2,-27.34375,-41.9921875,-31.73828125,-20.99609375,0.0,0
1586282044.606217,298,2,-33.203125,-59.5703125,-42.48046875,-18.06640625,0.0,0
1586282044.6101232,298,2,-20.99609375,-54.19921875,-24.4140625,-7.32421875,0.0,0
1586282044.6140294,298,2,-11.71875,-42.48046875,-14.6484375,-10.25390625,0.0,0
1586282044.6179357,298,2,-8.30078125,-58.59375,-13.671875,0.0,0.0,0
1586282044.621842,298,2,-17.578125,-54.19921875,-37.59765625,-3.90625,0.0,0
1586282044.6257482,298,2,-12.6953125,-20.5078125,-32.2265625,-14.6484375,0.0,0
1586282044.6296544,298,2,-9.27734375,-20.99609375,-26.3671875,-13.18359375,0.0,0
1586282044.6335607,298,2,-12.20703125,-35.64453125,-48.33984375,-15.13671875,0.0,0
1586282044.637467,298,2,-12.6953125,-44.921875,-56.15234375,-9.765625,0.0,0
1586282044.6413732,298,2,-7.32421875,-27.34375,-36.1328125,-4.39453125,0.0,0
1586282044.6452794,298,2,-8.7890625,-31.73828125,-30.76171875,-13.671875,0.0,0
1586282044.6491857,298,2,-23.92578125,-62.5,-37.109375,-26.85546875,0.0,0
1586282044.653092,298,2,-27.83203125,-62.5,-34.66796875,-17.578125,0.0,0
1586282044.6569982,298,2,-12.6953125,-22.4609375,-27.34375,1.46484375,0.0,0
1586282044.6609044,298,2,-7.8125,-12.20703125,-50.78125,7.32421875,0.0,0
1586282044.6648107,298,2,-17.578125,-37.59765625,-58.59375,1.46484375,0.0,0
1586282044.668717,298,2,-21.97265625,-31.73828125,-25.390625,0.9765625,0.0,0
1586282044.6726232,298,2,-8.30078125,-24.4140625,-24.4140625,15.13671875,0.0,0
1586282044.6765294,298,2,0.0,-30.2734375,-42.96875,3.90625,0.0,0
1586282044.6804357,298,2,-9.27734375,-29.296875,-46.875,-17.08984375,0.0,0
1586282044.684342,298,2,-17.578125,-31.73828125,-39.55078125,-18.5546875,0.0,0
1586282044.6882482,298,2,-24.90234375,-28.80859375,-40.0390625,-23.4375,0.0,0
1586282044.6921544,298,2,-16.11328125,-19.53125,-45.41015625,-16.11328125,0.0,0
1586282044.6960607,298,2,-7.32421875,-23.92578125,-31.73828125,-9.765625,0.0,0
1586282044.699967,298,2,-11.23046875,-46.38671875,-27.34375,-16.11328125,0.0,0
1586282044.7038732,298,2,-20.5078125,-43.9453125,-37.109375,-13.671875,0.0,0
1586282044.7077794,298,2,-22.4609375,-24.90234375,-33.203125,-9.765625,0.0,0
1586282044.7116857,298,2,-19.04296875,-28.80859375,-40.0390625,-13.671875,0.0,0
1586282044.715592,298,2,-10.25390625,-38.0859375,-53.7109375,-7.8125,0.0,0
1586282044.7194982,298,2,-7.8125,-44.921875,-32.2265625,0.48828125,0.0,0
1586282044.7234044,298,2,-19.04296875,-55.6640625,-22.4609375,-9.27734375,0.0,0
1586282044.7273107,298,2,-29.296875,-36.62109375,-25.390625,-23.4375,0.0,0
1586282044.731217,298,2,-37.109375,-28.3203125,-26.3671875,-27.34375,0.0,0
1586282044.7351232,298,2,-33.203125,-38.0859375,-41.50390625,-23.92578125,0.0,0
1586282044.7390294,298,2,-24.4140625,-23.4375,-33.69140625,-20.99609375,0.0,0
1586282044.7429357,298,2,-35.15625,-20.99609375,-22.94921875,-32.71484375,0.0,0
1586282044.746842,298,2,-39.55078125,-28.80859375,-10.25390625,-46.38671875,0.0,0
1586282044.7507482,298,2,-33.69140625,-25.87890625,-14.6484375,-30.76171875,0.0,0
1586282044.7546544,298,2,-35.64453125,-27.34375,-49.8046875,-25.390625,0.0,0
1586282044.7585607,298,2,-40.52734375,-37.59765625,-52.24609375,-30.76171875,0.0,0
1586282044.762467,298,2,-39.0625,-45.8984375,-30.2734375,-27.83203125,0.0,0
1586282044.7663732,298,2,-38.0859375,-38.57421875,-20.5078125,-28.80859375,0.0,0
1586282044.7702794,298,2,-46.38671875,-38.0859375,-41.015625,-30.76171875,0.0,0
1586282044.7741857,298,2,-21.97265625,-33.69140625,-44.921875,-26.3671875,0.0,0
1586282044.778092,298,2,-3.90625,-26.3671875,-39.55078125,-11.71875,0.0,0
1586282044.7819982,298,2,-17.08984375,-24.90234375,-37.109375,-15.625,0.0,0
1586282044.7859044,298,2,-23.4375,-19.53125,-28.3203125,-30.2734375,0.0,0
1586282044.7898107,298,2,-11.71875,-23.4375,-37.109375,-19.04296875,0.0,0
1586282044.793717,298,2,-7.32421875,-40.52734375,-41.9921875,-13.18359375,0.0,0
1586282044.7976232,298,2,-6.8359375,-43.45703125,-28.80859375,-18.5546875,0.0,0
1586282044.8015294,298,2,-16.6015625,-41.015625,-42.96875,-24.90234375,0.0,0
1586282044.8054357,298,2,-32.71484375,-41.015625,-68.359375,-27.83203125,0.0,0
1586282044.809342,298,2,-26.3671875,-38.57421875,-53.22265625,-27.83203125,0.0,0
1586282044.8132482,298,2,-19.53125,-21.97265625,-29.296875,-22.4609375,0.0,0
1586282044.8171544,298,2,-17.08984375,-22.94921875,-14.16015625,-7.32421875,0.0,0
1586282044.8210607,298,2,-5.37109375,-30.2734375,-7.32421875,13.671875,0.0,0
1586282044.824967,298,2,-9.27734375,-9.765625,-18.5546875,12.20703125,0.0,0
1586282044.8288732,298,2,-15.13671875,-17.08984375,-30.2734375,0.9765625,0.0,0
1586282044.8327794,298,2,-3.90625,-28.80859375,-20.5078125,8.30078125,0.0,0
1586282044.8366857,298,2,-9.27734375,-19.53125,-17.08984375,-4.39453125,0.0,0
1586282044.840592,298,2,-26.3671875,-18.06640625,-27.34375,-16.6015625,0.0,0
1586282044.8444982,298,2,-31.25,-28.80859375,-38.0859375,-12.20703125,0.0,0
1586282044.8484044,298,2,-31.25,-31.73828125,-37.109375,-16.6015625,0.0,0
1586282044.8523107,298,2,-34.66796875,-35.15625,-54.6875,-30.2734375,0.0,0
1586282044.856217,298,2,-36.1328125,-62.5,-58.10546875,-31.25,0.0,0
1586282044.8601232,298,2,-31.73828125,-58.59375,-36.1328125,-24.4140625,0.0,0
1586282044.8640294,298,2,-26.3671875,-27.34375,-33.203125,-24.4140625,0.0,0
1586282044.8679357,298,2,-32.2265625,-23.4375,-46.38671875,-38.57421875,0.0,0
1586282044.871842,298,2,-38.0859375,-41.50390625,-44.43359375,-49.8046875,0.0,0
1586282044.8757482,298,2,-12.20703125,-35.64453125,-30.2734375,-29.296875,0.0,0
1586282044.8796544,298,2,-16.11328125,-20.01953125,-48.828125,-29.78515625,0.0,0
1586282044.8835607,298,2,-35.15625,-12.20703125,-65.4296875,-45.41015625,0.0,0
1586282044.887467,298,2,-30.2734375,-19.04296875,-51.7578125,-34.1796875,0.0,0
1586282044.8913732,298,2,-25.390625,-38.0859375,-42.96875,-25.390625,0.0,0
1586282044.8952794,298,2,-17.08984375,-27.34375,-57.12890625,-21.97265625,0.0,0
1586282044.8991857,298,2,-21.97265625,-21.484375,-54.6875,-18.06640625,0.0,0
1586282044.903092,298,2,-34.1796875,-25.390625,-45.41015625,-19.53125,0.0,0
1586282044.9069982,298,2,-37.59765625,-26.3671875,-53.22265625,-18.5546875,0.0,0
1586282044.9109044,298,2,-34.66796875,-34.1796875,-43.9453125,-10.7421875,0.0,0
1586282044.9148107,298,2,-25.87890625,-45.41015625,-27.34375,-0.48828125,0.0,0
1586282044.918717,298,2,-23.4375,-69.82421875,-34.66796875,-1.46484375,0.0,0
1586282044.9226232,298,2,-27.83203125,-69.3359375,-32.71484375,-5.37109375,0.0,0
1586282044.9265294,298,2,-35.15625,-34.1796875,-40.52734375,-13.671875,0.0,0
1586282044.9304357,298,2,-35.64453125,-6.8359375,-56.640625,-20.5078125,0.0,0
1586282044.934342,298,2,-21.97265625,-2.44140625,-41.50390625,-10.7421875,0.0,0
1586282044.9382482,298,2,-7.8125,-12.20703125,-30.2734375,-2.44140625,0.0,0
1586282044.9421544,298,2,-10.7421875,-20.99609375,-43.9453125,-8.7890625,0.0,0
1586282044.9460607,298,2,-24.90234375,-34.1796875,-44.921875,-19.53125,0.0,0
1586282044.949967,298,2,-27.34375,-41.015625,-41.50390625,-27.34375,0.0,0
1586282044.9538732,298,2,-20.99609375,-32.71484375,-50.29296875,-20.5078125,0.0,0
1586282044.9577794,298,2,-12.20703125,-40.0390625,-32.71484375,0.0,0.0,0
1586282044.9616857,298,2,-21.97265625,-56.15234375,-19.04296875,-3.90625,0.0,0
1586282044.965592,298,2,-31.25,-44.921875,-26.85546875,-15.625,0.0,0
1586282044.9694982,298,2,-37.59765625,-26.85546875,-41.50390625,-31.25,0.0,0
1586282044.9734044,298,2,-31.73828125,-31.25,-69.82421875,-29.78515625,0.0,0
1586282044.9773107,298,2,-9.27734375,-19.04296875,-59.08203125,-8.30078125,0.0,0
1586282044.981217,298,2,-9.765625,-9.765625,-17.08984375,-5.859375,0.0,0
1586282044.9851232,298,2,-27.34375,-19.04296875,-18.5546875,-24.90234375,0.0,0
1586282044.9890294,298,2,-39.0625,-28.3203125,-46.875,-25.390625,0.0,0
1586282044.9929357,298,2,-34.1796875,-21.484375,-36.62109375,-12.6953125,0.0,0
1586282044.996842,298,2,-22.94921875,-17.08984375,-24.4140625,-8.7890625,0.0,0
1586282045.0007482,298,2,-24.90234375,-37.59765625,-43.9453125,-8.7890625,0.0,0
1586282045.0046544,298,2,-36.62109375,-63.96484375,-37.59765625,-14.6484375,0.0,0
1586282045.0085607,298,2,-31.25,-53.22265625,-29.78515625,-23.4375,0.0,0
1586282045.012467,298,2,-25.390625,-15.625,-34.1796875,-28.3203125,0.0,0
1586282045.0163732,298,2,-29.78515625,-5.859375,-49.8046875,-38.0859375,0.0,0
1586282045.0202794,298,2,-34.1796875,-30.2734375,-62.98828125,-36.62109375,0.0,0
1586282045.0241857,298,2,-38.57421875,-34.1796875,-61.03515625,-31.25,0.0,0
1586282045.028092,298,2,-30.2734375,-12.20703125,-39.55078125,-31.25,0.0,0
1586282045.0319982,298,2,-18.06640625,-11.23046875,-24.90234375,-25.390625,0.0,0
1586282045.0359044,298,2,-13.18359375,-34.66796875,-48.33984375,-16.6015625,0.0,0
1586282045.0398107,298,2,-7.32421875,-45.8984375,-62.98828125,-13.671875,0.0,0
1586282045.043717,298,2,-7.8125,-38.0859375,-28.80859375,-8.7890625,0.0,0
1586282045.0476232,298,2,-20.99609375,-35.15625,-18.06640625,-13.671875,0.0,0
1586282045.0515294,298,2,-34.66796875,-31.25,-31.73828125,-25.390625,0.0,0
1586282045.0554357,298,2,-29.296875,-22.94921875,-17.08984375,-25.390625,0.0,0
1586282045.059342,298,2,-14.6484375,-3.41796875,-29.78515625,-28.80859375,0.0,0
1586282045.0632482,298,2,-21.484375,-18.5546875,-53.22265625,-34.66796875,0.0,0
1586282045.0671544,298,2,-34.66796875,-45.41015625,-46.875,-27.34375,0.0,0
1586282045.0710607,298,2,-27.83203125,-44.921875,-40.52734375,-15.13671875,0.0,0
1586282045.074967,298,2,-18.5546875,-46.38671875,-46.38671875,-11.71875,0.0,0
1586282045.0788732,298,2,-27.83203125,-36.62109375,-60.05859375,-6.8359375,0.0,0
1586282045.0827794,298,2,-42.48046875,-30.76171875,-43.9453125,-6.8359375,0.0,0
1586282045.0866857,298,2,-44.43359375,-42.96875,-29.296875,-19.53125,0.0,0
1586282045.090592,298,2,-35.15625,-63.96484375,-23.4375,-20.5078125,0.0,0
1586282045.0944982,298,2,-28.80859375,-35.64453125,-10.7421875,-14.16015625,0.0,0
1586282045.0984044,298,2,-24.90234375,-10.25390625,-18.06640625,-17.578125,0.0,0
1586282045.1023107,298,2,-29.296875,-35.64453125,-35.15625,-14.6484375,0.0,0
1586282045.106217,298,2,-29.296875,-36.1328125,-38.0859375,-20.99609375,0.0,0
1586282045.1101232,298,2,-30.2734375,-18.06640625,-50.29296875,-29.78515625,0.0,0
1586282045.1140294,298,2,-28.80859375,-11.71875,-49.31640625,-26.3671875,0.0,0
1586282045.1179357,298,2,-14.6484375,-5.37109375,-24.90234375,-13.671875,0.0,0
1586282045.121842,298,2,-11.71875,-10.25390625,-34.1796875,-12.6953125,0.0,0
1586282045.1257482,298,2,-21.97265625,-24.90234375,-33.69140625,-36.1328125,0.0,0
1586282045.1296544,298,2,-25.87890625,-43.45703125,-35.64453125,-34.66796875,0.0,0
1586282045.1335607,298,2,-19.04296875,-40.0390625,-54.6875,-17.08984375,0.0,0
1586282045.137467,298,2,-16.11328125,-19.53125,-38.57421875,-12.20703125,0.0,0
1586282045.1413732,298,2,-23.4375,-18.5546875,-35.15625,-18.06640625,0.0,0
1586282045.1452794,298,2,-36.1328125,-27.83203125,-47.8515625,-33.69140625,0.0,0
1586282045.1491857,298,2,-35.64453125,-26.85546875,-45.8984375,-31.73828125,0.0,0
1586282045.153092,298,2,-28.80859375,-21.97265625,-26.85546875,-0.9765625,0.0,0
1586282045.1569982,298,2,-21.484375,-20.5078125,-31.25,2.9296875,0.0,0
1586282045.1609044,298,2,-14.16015625,-22.4609375,-29.78515625,-4.39453125,0.0,0
1586282045.1648107,298,2,-22.4609375,-24.90234375,-22.4609375,-6.34765625,0.0,0
1586282045.168717,298,2,-33.69140625,-48.33984375,-52.734375,-17.578125,0.0,0
1586282045.1726232,298,2,-33.69140625,-67.3828125,-62.98828125,-31.25,0.0,0
1586282045.1765294,298,2,-25.87890625,-43.9453125,-41.015625,-23.4375,0.0,0
1586282045.1804357,298,2,-20.01953125,-33.203125,-32.71484375,-15.625,0.0,0
1586282045.184342,298,2,-36.62109375,-34.1796875,-38.0859375,-24.4140625,0.0,0
1586282045.1882482,298,2,-52.24609375,-17.08984375,-24.90234375,-23.4375,0.0,0
1586282045.1921544,298,2,-38.0859375,-18.06640625,-20.01953125,-24.90234375,0.0,0
1586282045.1960607,298,2,-22.94921875,-28.80859375,-20.5078125,-18.5546875,0.0,0
1586282045.199967,298,2,-30.76171875,-23.4375,-20.01953125,-7.8125,0.0,0
1586282045.2038732,298,2,-37.109375,-33.203125,-32.71484375,-16.6015625,0.0,0
1586282045.2077794,298,2,-41.9921875,-43.9453125,-38.0859375,-17.08984375,0.0,0
1586282045.2116857,298,2,-40.0390625,-35.15625,-37.59765625,-12.6953125,0.0,0
1586282045.215592,298,2,-33.203125,-39.0625,-45.8984375,-25.87890625,0.0,0
1586282045.2194982,298,2,-34.1796875,-38.0859375,-60.05859375,-19.04296875,0.0,0
1586282045.2234044,298,2,-30.76171875,-26.3671875,-46.38671875,-6.8359375,0.0,0
1586282045.2273107,298,2,-20.5078125,-27.83203125,-13.18359375,-17.08984375,0.0,0
1586282045.231217,298,2,-2.9296875,-24.4140625,-3.90625,-19.04296875,0.0,0
1586282045.2351232,298,2,6.34765625,-21.484375,-30.2734375,-4.8828125,0.0,0
1586282045.2390294,298,2,-2.44140625,-14.6484375,-40.52734375,-17.08984375,0.0,0
1586282045.2429357,298,2,-13.671875,-28.80859375,-26.3671875,-22.94921875,0.0,0
1586282045.246842,298,2,-22.4609375,-42.96875,-33.203125,-18.06640625,0.0,0
1586282045.2507482,298,2,-8.30078125,-39.0625,-36.1328125,-27.34375,0.0,0
1586282045.2546544,298,2,6.8359375,-35.64453125,-46.38671875,-7.32421875,0.0,0
1586282045.2585607,298,2,-0.9765625,-14.6484375,-45.41015625,5.37109375,0.0,0
1586282045.262467,298,2,-14.6484375,-16.6015625,-17.08984375,-15.13671875,0.0,0
1586282045.2663732,298,2,-25.390625,-28.80859375,-17.578125,-31.25,0.0,0
1586282045.2702794,298,2,-20.5078125,-27.34375,-20.01953125,-30.76171875,0.0,0
1586282045.2741857,298,2,-9.765625,-25.390625,-21.484375,-27.83203125,0.0,0
1586282045.278092,298,2,-11.71875,-13.18359375,-24.90234375,-24.90234375,0.0,0
1586282045.2819982,298,2,-9.27734375,-16.6015625,-31.25,-26.85546875,0.0,0
1586282045.2859044,298,2,-10.7421875,-34.66796875,-44.43359375,-28.3203125,0.0,0
1586282045.2898107,298,2,-12.6953125,-34.66796875,-37.59765625,-18.5546875,0.0,0
1586282045.293717,298,2,4.39453125,-20.99609375,-12.20703125,-2.9296875,0.0,0
1586282045.2976232,298,2,5.37109375,-15.13671875,-15.625,0.48828125,0.0,0
1586282045.3015294,298,2,-13.671875,-31.73828125,-54.6875,-15.13671875,0.0,0
1586282045.3054357,298,2,-38.57421875,-38.0859375,-47.8515625,-37.109375,0.0,0
1586282045.309342,298,2,-51.7578125,-16.6015625,-22.4609375,-39.55078125,0.0,0
1586282045.3132482,298,2,-38.0859375,-14.16015625,-20.99609375,-30.2734375,0.0,0
1586282045.3171544,298,2,-30.2734375,-27.83203125,-17.578125,-29.296875,0.0,0
1586282045.3210607,298,2,-30.76171875,-38.0859375,-5.37109375,-18.06640625,0.0,0
1586282045.324967,298,2,-31.25,-30.2734375,-10.25390625,-26.85546875,0.0,0
1586282045.3288732,298,2,-30.2734375,-33.69140625,-8.30078125,-51.26953125,0.0,0
1586282045.3327794,298,2,-10.25390625,-37.109375,-3.90625,-24.4140625,0.0,0
1586282045.3366857,298,2,-6.34765625,-34.66796875,-26.3671875,-19.04296875,0.0,0
1586282045.340592,298,2,-16.11328125,-31.73828125,-34.66796875,-36.1328125,0.0,0
1586282045.3444982,298,2,-15.625,-25.87890625,-47.36328125,-38.57421875,0.0,0
1586282045.3484044,298,2,-12.20703125,-33.69140625,-57.6171875,-30.76171875,0.0,0
1586282045.3523107,298,2,-12.20703125,-38.0859375,-53.7109375,-25.390625,0.0,0
1586282045.356217,298,2,-3.90625,-34.66796875,-23.4375,-15.625,0.0,0
1586282045.3601232,298,2,6.34765625,-13.18359375,-10.25390625,-9.765625,0.0,0
1586282045.3640294,298,2,-5.37109375,0.0,-13.18359375,-28.3203125,0.0,0
1586282045.3679357,298,2,-10.7421875,-16.6015625,3.90625,-17.578125,0.0,0
1586282045.371842,298,2,0.48828125,-18.5546875,-9.27734375,-10.25390625,0.0,0
1586282045.3757482,298,2,2.44140625,-13.18359375,-27.34375,-16.6015625,0.0,0
1586282045.3796544,298,2,-4.8828125,-19.04296875,-22.4609375,-3.90625,0.0,0
1586282045.3835607,298,2,-16.6015625,-32.2265625,-41.9921875,-12.20703125,0.0,0
1586282045.387467,298,2,-21.97265625,-31.73828125,-64.94140625,-29.78515625,0.0,0
1586282045.3913732,298,2,-22.4609375,-24.4140625,-43.45703125,-31.25,0.0,0
1586282045.3952794,298,2,-21.97265625,-27.83203125,-29.78515625,-15.13671875,0.0,0
1586282045.3991857,298,2,-13.18359375,-31.25,-45.41015625,-10.25390625,0.0,0
1586282045.403092,298,2,-6.34765625,-44.921875,-31.73828125,-2.9296875,0.0,0
1586282045.4069982,298,2,-11.71875,-39.55078125,-17.08984375,-1.46484375,0.0,0
1586282045.4109044,298,2,-13.671875,-21.484375,-30.2734375,-7.32421875,0.0,0
1586282045.4148107,298,2,-15.625,-19.04296875,-24.90234375,-4.39453125,0.0,0
1586282045.418717,298,2,-18.5546875,-35.15625,-22.94921875,-15.625,0.0,0
1586282045.4226232,298,2,-26.85546875,-43.45703125,-32.2265625,-16.11328125,0.0,0
1586282045.4265294,298,2,-42.96875,-19.04296875,-35.15625,-16.6015625,0.0,0
1586282045.4304357,298,2,-38.0859375,-9.765625,-30.76171875,-14.6484375,0.0,0
1586282045.434342,298,2,-25.87890625,-16.11328125,-43.45703125,-7.32421875,0.0,0
1586282045.4382482,298,2,-20.5078125,-18.06640625,-46.875,-2.9296875,0.0,0
1586282045.4421544,298,2,-21.484375,-20.5078125,-52.24609375,-7.32421875,0.0,0
