timestamps,words,terms,TP9,AF7,AF8,TP10,Right AUX,Marker
1586281908.8991857,237,1,-11.23046875,-39.55078125,-46.38671875,-27.34375,0.0,0
1586281908.903092,237,1,-14.6484375,-25.87890625,-56.15234375,-34.1796875,0.0,0
1586281908.9069982,237,1,-17.578125,-22.94921875,-53.22265625,-21.97265625,0.0,0
1586281908.9109044,237,1,-18.06640625,-14.6484375,-43.9453125,-14.6484375,0.0,0
1586281908.9148107,237,1,-28.3203125,-27.83203125,-48.828125,-23.92578125,0.0,0
1586281908.918717,237,1,-16.11328125,-54.6875,-32.71484375,-20.5078125,0.0,0
1586281908.9226232,237,1,0.9765625,-41.50390625,-27.34375,-9.27734375,0.0,0
1586281908.9265294,237,1,-6.34765625,-25.390625,-32.2265625,6.8359375,0.0,0
1586281908.9304357,237,1,-24.4140625,-37.59765625,-29.78515625,10.25390625,0.0,0
1586281908.934342,237,1,-19.04296875,-41.50390625,-32.71484375,-9.765625,0.0,0
1586281908.9382482,237,1,-4.39453125,-45.41015625,-17.08984375,-11.23046875,0.0,0
1586281908.9421544,237,1,-5.859375,-48.828125,-16.11328125,-4.39453125,0.0,0
1586281908.9460607,237,1,-7.8125,-40.52734375,-41.50390625,-8.7890625,0.0,0
1586281908.949967,237,1,-17.578125,-50.78125,-43.9453125,-13.18359375,0.0,0
1586281908.9538732,237,1,-24.90234375,-56.640625,-36.1328125,-15.13671875,0.0,0
1586281908.9577794,237,1,-17.578125,-34.66796875,-10.25390625,-13.671875,0.0,0
1586281908.9616857,237,1,-4.39453125,-15.625,-18.5546875,-8.30078125,0.0,0
1586281908.965592,237,1,-3.90625,-16.6015625,-31.25,-7.32421875,0.0,0
1586281908.9694982,237,1,-10.7421875,-26.3671875,-23.4375,-16.11328125,0.0,0
1586281908.9734044,237,1,-13.18359375,-31.73828125,-33.203125,-19.04296875,0.0,0
1586281908.9773107,237,1,-16.6015625,-32.71484375,-44.43359375,-26.85546875,0.0,0
1586281908.981217,237,1,-2.44140625,-37.59765625,-41.9921875,-17.578125,0.0,0
1586281908.9851232,237,1,5.859375,-35.64453125,-12.6953125,0.9765625,0.0,0
1586281908.9890294,237,1,-3.90625,-28.80859375,-25.390625,-4.8828125,0.0,0
1586281908.9929357,237,1,-10.25390625,-62.5,-41.015625,-11.71875,0.0,0
1586281908.996842,237,1,-7.8125,-43.9453125,-36.1328125,-15.625,0.0,0
1586281909.0007482,237,1,-0.9765625,-24.4140625,-47.36328125,-16.6015625,0.0,0
1586281909.0046544,237,1,0.9765625,-37.109375,-42.48046875,-11.23046875,0.0,0
1586281909.0085607,237,1,-11.71875,-19.04296875,-33.203125,-6.8359375,0.0,0
1586281909.012467,237,1,-25.390625,-32.2265625,-39.55078125,-16.6015625,0.0,0
1586281909.0163732,237,1,-26.3671875,-33.69140625,-60.546875,-21.97265625,0.0,0
1586281909.0202794,237,1,-17.08984375,-18.5546875,-48.33984375,-19.04296875,0.0,0
1586281909.0241857,237,1,-17.08984375,-25.87890625,-35.64453125,-20.5078125,0.0,0
1586281909.028092,237,1,-17.578125,-31.73828125,-20.99609375,-7.32421875,0.0,0
1586281909.0319982,237,1,-23.4375,-37.59765625,-21.484375,-15.625,0.0,0
1586281909.0359044,237,1,-28.80859375,-36.1328125,-40.52734375,-29.78515625,0.0,0
1586281909.0398107,237,1,-20.5078125,-26.85546875,-36.62109375,-16.6015625,0.0,0
1586281909.043717,237,1,-20.5078125,-37.59765625,-37.59765625,-10.25390625,0.0,0
1586281909.0476232,237,1,-26.85546875,-42.48046875,-32.2265625,-10.25390625,0.0,0
1586281909.0515294,237,1,-24.90234375,-34.1796875,-18.5546875,-20.01953125,0.0,0
1586281909.0554357,237,1,-28.3203125,-35.15625,-30.76171875,-30.76171875,0.0,0
1586281909.059342,237,1,-16.11328125,-23.92578125,-33.69140625,-17.08984375,0.0,0
1586281909.0632482,237,1,-19.53125,-18.06640625,-52.734375,-12.20703125,0.0,0
1586281909.0671544,237,1,-23.4375,-41.015625,-72.265625,-16.6015625,0.0,0
1586281909.0710607,237,1,-20.99609375,-62.01171875,-54.6875,-20.01953125,0.0,0
1586281909.074967,237,1,-27.34375,-41.9921875,-35.15625,-27.34375,0.0,0
1586281909.0788732,237,1,-20.5078125,-20.5078125,-34.66796875,-26.3671875,0.0,0
1586281909.0827794,237,1,-2.9296875,-12.20703125,-26.3671875,-13.18359375,0.0,0
1586281909.0866857,237,1,8.7890625,-22.4609375,-16.11328125,-1.46484375,0.0,0
1586281909.090592,237,1,-4.39453125,-29.78515625,-24.90234375,-12.20703125,0.0,0
1586281909.0944982,237,1,-18.5546875,-16.6015625,-21.484375,-19.04296875,0.0,0
1586281909.0984044,237,1,-15.13671875,-31.73828125,-18.06640625,-11.71875,0.0,0
1586281909.1023107,237,1,-10.7421875,-41.50390625,-37.109375,-12.6953125,0.0,0
1586281909.106217,237,1,-5.37109375,-31.73828125,-36.62109375,-7.32421875,0.0,0
1586281909.1101232,237,1,-7.8125,-45.41015625,-33.69140625,-15.13671875,0.0,0
1586281909.1140294,237,1,-20.99609375,-36.1328125,-35.64453125,-26.3671875,0.0,0
1586281909.1179357,237,1,-22.4609375,-24.90234375,-41.015625,-21.97265625,0.0,0
1586281909.121842,237,1,-9.27734375,-29.78515625,-35.64453125,-21.97265625,0.0,0
1586281909.1257482,237,1,-9.765625,-25.390625,-27.83203125,-11.71875,0.0,0
1586281909.1296544,237,1,-27.83203125,-22.94921875,-45.41015625,-19.53125,0.0,0
1586281909.1335607,237,1,-33.69140625,-29.296875,-40.52734375,-28.3203125,0.0,0
1586281909.137467,237,1,-33.203125,-29.78515625,-22.4609375,-26.85546875,0.0,0
1586281909.1413732,237,1,-24.90234375,-34.1796875,-18.06640625,-17.578125,0.0,0
1586281909.1452794,237,1,-14.16015625,-37.59765625,-26.85546875,-15.625,0.0,0
1586281909.1491857,237,1,-17.578125,-62.98828125,-35.64453125,-16.6015625,0.0,0
1586281909.153092,237,1,-23.92578125,-74.70703125,-53.22265625,-11.71875,0.0,0
1586281909.1569982,237,1,-15.625,-15.13671875,-73.2421875,-17.578125,0.0,0
1586281909.1609044,237,1,-7.8125,3.41796875,-51.26953125,-31.73828125,0.0,0
1586281909.1648107,237,1,-8.7890625,-23.4375,-22.4609375,-28.80859375,0.0,0
1586281909.168717,237,1,-7.8125,-38.0859375,-28.80859375,-25.390625,0.0,0
1586281909.1726232,237,1,-19.53125,-36.62109375,-43.45703125,-41.50390625,0.0,0
1586281909.1765294,237,1,-38.0859375,-42.96875,-49.31640625,-44.921875,0.0,0
1586281909.1804357,237,1,-40.52734375,-49.8046875,-55.6640625,-41.50390625,0.0,0
1586281909.184342,237,1,-35.15625,-51.7578125,-49.31640625,-29.78515625,0.0,0
1586281909.1882482,237,1,-33.203125,-53.22265625,-32.2265625,-17.08984375,0.0,0
1586281909.1921544,237,1,-38.57421875,-59.08203125,-29.78515625,-29.296875,0.0,0
1586281909.1960607,237,1,-36.1328125,-46.875,-37.109375,-31.73828125,0.0,0
1586281909.199967,237,1,-26.3671875,-39.0625,-36.1328125,-12.20703125,0.0,0
1586281909.2038732,237,1,-22.4609375,-54.19921875,-29.296875,-9.27734375,0.0,0
1586281909.2077794,237,1,-26.85546875,-48.828125,-30.2734375,-11.23046875,0.0,0
1586281909.2116857,237,1,-32.2265625,-42.48046875,-46.875,-13.671875,0.0,0
1586281909.215592,237,1,-38.0859375,-41.015625,-41.50390625,-15.625,0.0,0
1586281909.2194982,237,1,-32.71484375,-45.8984375,-31.73828125,-15.13671875,0.0,0
1586281909.2234044,237,1,-16.6015625,-57.6171875,-48.33984375,-7.32421875,0.0,0
1586281909.2273107,237,1,-20.5078125,-38.0859375,-37.109375,-4.39453125,0.0,0
1586281909.231217,237,1,-33.203125,-41.9921875,-5.859375,-8.30078125,0.0,0
1586281909.2351232,237,1,-26.3671875,-72.75390625,-14.6484375,-15.13671875,0.0,0
1586281909.2390294,237,1,-16.6015625,-32.71484375,-57.12890625,-16.11328125,0.0,0
1586281909.2429357,237,1,-12.20703125,-16.6015625,-55.17578125,-9.27734375,0.0,0
1586281909.246842,237,1,-10.7421875,-27.34375,-33.203125,-11.71875,0.0,0
1586281909.2507482,237,1,-16.6015625,-13.671875,-49.8046875,-19.04296875,0.0,0
1586281909.2546544,237,1,-29.296875,-28.3203125,-53.7109375,-32.2265625,0.0,0
1586281909.2585607,237,1,-22.4609375,-47.36328125,-36.62109375,-23.4375,0.0,0
1586281909.262467,237,1,-12.20703125,-35.15625,-32.71484375,-15.625,0.0,0
1586281909.2663732,237,1,-20.5078125,-30.76171875,-25.390625,-18.06640625,0.0,0
1586281909.2702794,237,1,-24.4140625,-38.57421875,-17.578125,-20.99609375,0.0,0
1586281909.2741857,237,1,-32.2265625,-40.52734375,-13.18359375,-22.94921875,0.0,0
1586281909.278092,237,1,-28.3203125,-44.43359375,-20.01953125,-23.92578125,0.0,0
1586281909.2819982,237,1,-12.20703125,-39.0625,-42.48046875,-8.30078125,0.0,0
1586281909.2859044,237,1,-5.859375,-27.34375,-47.36328125,-3.90625,0.0,0
1586281909.2898107,237,1,-17.578125,-31.25,-41.9921875,-14.6484375,0.0,0
1586281909.293717,237,1,-26.3671875,-41.9921875,-42.96875,-19.04296875,0.0,0
1586281909.2976232,237,1,-19.04296875,-27.34375,-49.8046875,-18.06640625,0.0,0
1586281909.3015294,237,1,-8.7890625,-21.97265625,-47.36328125,-7.32421875,0.0,0
1586281909.3054357,237,1,-2.9296875,-49.8046875,-42.96875,-3.41796875,0.0,0
1586281909.309342,237,1,-14.16015625,-48.33984375,-20.99609375,-10.25390625,0.0,0
1586281909.3132482,237,1,-26.3671875,-32.71484375,-12.6953125,-19.53125,0.0,0
1586281909.3171544,237,1,-24.90234375,-28.3203125,-34.1796875,-20.99609375,0.0,0
1586281909.3210607,237,1,-24.90234375,-38.57421875,-39.55078125,-17.578125,0.0,0
1586281909.324967,237,1,-17.08984375,-42.96875,-24.90234375,-15.13671875,0.0,0
1586281909.3288732,237,1,-10.25390625,-37.109375,-19.53125,-11.71875,0.0,0
1586281909.3327794,237,1,-21.484375,-34.66796875,-31.73828125,-13.18359375,0.0,0
1586281909.3366857,237,1,-26.3671875,-24.90234375,-49.31640625,-21.484375,0.0,0
1586281909.340592,237,1,-17.578125,-20.99609375,-54.6875,-20.99609375,0.0,0
1586281909.3444982,237,1,-21.484375,-36.62109375,-32.2265625,-9.27734375,0.0,0
1586281909.3484044,237,1,-25.87890625,-51.7578125,-13.671875,-4.39453125,0.0,0
1586281909.3523107,237,1,-25.390625,-48.828125,-36.1328125,-10.25390625,0.0,0
1586281909.356217,237,1,-30.2734375,-36.62109375,-42.96875,-16.6015625,0.0,0
1586281909.3601232,237,1,-25.390625,-36.62109375,-23.92578125,-20.99609375,0.0,0
1586281909.3640294,237,1,-11.71875,-48.828125,-17.578125,-21.97265625,0.0,0
1586281909.3679357,237,1,-15.625,-38.0859375,-12.20703125,-10.25390625,0.0,0
1586281909.371842,237,1,-25.390625,-30.2734375,-34.1796875,-11.71875,0.0,0
1586281909.3757482,237,1,-31.73828125,-45.41015625,-61.03515625,-29.296875,0.0,0
1586281909.3796544,237,1,-25.87890625,-50.29296875,-46.38671875,-24.4140625,0.0,0
1586281909.3835607,237,1,-8.7890625,-48.33984375,-39.55078125,-10.25390625,0.0,0
1586281909.387467,237,1,-6.34765625,-51.26953125,-43.45703125,-8.30078125,0.0,0
1586281909.3913732,237,1,-18.5546875,-35.15625,-39.0625,-6.8359375,0.0,0
1586281909.3952794,237,1,-29.296875,-27.83203125,-27.83203125,-8.30078125,0.0,0
1586281909.3991857,237,1,-29.296875,-27.83203125,-28.3203125,-23.92578125,0.0,0
1586281909.403092,237,1,-13.671875,-27.34375,-30.2734375,-25.390625,0.0,0
1586281909.4069982,237,1,-4.39453125,-27.83203125,-19.53125,-17.578125,0.0,0
1586281909.4109044,237,1,-19.04296875,-35.15625,-17.578125,-21.484375,0.0,0
1586281909.4148107,237,1,-29.78515625,-38.0859375,-19.04296875,-37.109375,0.0,0
1586281909.418717,237,1,-29.78515625,-46.38671875,-30.76171875,-37.109375,0.0,0
1586281909.4226232,237,1,-22.94921875,-53.7109375,-38.57421875,-23.92578125,0.0,0
1586281909.4265294,237,1,-17.578125,-38.0859375,-45.8984375,-27.83203125,0.0,0
1586281909.4304357,237,1,-18.06640625,-19.04296875,-54.6875,-22.4609375,0.0,0
1586281909.434342,237,1,-32.2265625,-16.11328125,-44.921875,-16.11328125,0.0,0
1586281909.4382482,237,1,-37.59765625,-20.99609375,-26.85546875,-18.06640625,0.0,0
1586281909.4421544,237,1,-17.08984375,-24.90234375,-34.1796875,-10.7421875,0.0,0
1586281909.4460607,237,1,-7.32421875,-28.3203125,-56.15234375,-5.859375,0.0,0
1586281909.449967,237,1,-19.04296875,-39.0625,-41.9921875,-10.7421875,0.0,0
1586281909.4538732,237,1,-27.34375,-42.48046875,-15.13671875,-17.08984375,0.0,0
1586281909.4577794,237,1,-18.5546875,-33.203125,-12.6953125,-20.01953125,0.0,0
1586281909.4616857,237,1,-12.20703125,-55.17578125,-9.765625,-16.11328125,0.0,0
1586281909.465592,237,1,-8.7890625,-58.59375,-7.32421875,-9.765625,0.0,0
1586281909.4694982,237,1,-16.11328125,-31.73828125,-37.59765625,-22.4609375,0.0,0
1586281909.4734044,237,1,-21.97265625,-25.87890625,-47.8515625,-34.1796875,0.0,0
1586281909.4773107,237,1,-19.53125,-33.69140625,-46.875,-29.296875,0.0,0
1586281909.481217,237,1,-22.4609375,-45.41015625,-70.3125,-20.99609375,0.0,0
1586281909.4851232,237,1,-18.06640625,-29.296875,-51.7578125,-3.90625,0.0,0
1586281909.4890294,237,1,-20.5078125,-26.85546875,-31.25,-4.8828125,0.0,0
1586281909.4929357,237,1,-34.66796875,-38.0859375,-28.80859375,-20.5078125,0.0,0
1586281909.496842,237,1,-38.0859375,-36.1328125,-20.01953125,-29.78515625,0.0,0
1586281909.5007482,237,1,-27.34375,-28.80859375,-37.109375,-27.34375,0.0,0
1586281909.5046544,237,1,-23.92578125,-40.52734375,-60.05859375,-16.6015625,0.0,0
1586281909.5085607,237,1,-20.5078125,-59.08203125,-35.64453125,-7.32421875,0.0,0
1586281909.512467,237,1,-25.390625,-47.8515625,-17.08984375,-12.6953125,0.0,0
1586281909.5163732,237,1,-31.73828125,-39.0625,-36.1328125,-25.390625,0.0,0
1586281909.5202794,237,1,-22.4609375,-47.36328125,-41.015625,-24.4140625,0.0,0
1586281909.5241857,237,1,-17.08984375,-53.7109375,-36.62109375,-11.23046875,0.0,0
1586281909.528092,237,1,-20.5078125,-38.57421875,-22.4609375,-1.953125,0.0,0
1586281909.5319982,237,1,-30.76171875,-19.53125,-24.90234375,-14.6484375,0.0,0
1586281909.5359044,237,1,-30.2734375,-29.296875,-42.96875,-28.3203125,0.0,0
1586281909.5398107,237,1,-22.94921875,-46.875,-34.1796875,-25.87890625,0.0,0
1586281909.543717,237,1,-16.6015625,-31.73828125,-18.06640625,-5.859375,0.0,0
1586281909.5476232,237,1,-21.484375,-27.34375,-17.578125,-8.7890625,0.0,0
1586281909.5515294,237,1,-25.87890625,-41.015625,-46.875,-9.765625,0.0,0
1586281909.5554357,237,1,-26.85546875,-47.36328125,-40.52734375,-9.27734375,0.0,0
1586281909.559342,237,1,-22.94921875,-43.9453125,-17.578125,-17.08984375,0.0,0
1586281909.5632482,237,1,-16.6015625,-32.71484375,-14.16015625,-14.6484375,0.0,0
1586281909.5671544,237,1,-23.4375,-20.5078125,-23.4375,-17.578125,0.0,0
1586281909.5710607,237,1,-36.62109375,-27.34375,-43.45703125,-31.73828125,0.0,0
1586281909.574967,237,1,-31.25,-31.25,-41.50390625,-35.64453125,0.0,0
1586281909.5788732,237,1,-26.85546875,-31.73828125,-34.66796875,-27.83203125,0.0,0
1586281909.5827794,237,1,-20.01953125,-34.66796875,-38.0859375,-20.5078125,0.0,0
1586281909.5866857,237,1,-7.8125,-19.53125,-32.2265625,-14.16015625,0.0,0
1586281909.590592,237,1,-20.5078125,-14.6484375,-24.4140625,-18.06640625,0.0,0
1586281909.5944982,237,1,-30.76171875,-37.59765625,-40.52734375,-33.69140625,0.0,0
1586281909.5984044,237,1,-28.80859375,-37.59765625,-41.9921875,-33.203125,0.0,0
1586281909.6023107,237,1,-10.25390625,-19.53125,-27.83203125,-20.01953125,0.0,0
1586281909.606217,237,1,-5.37109375,-19.04296875,-36.62109375,-18.5546875,0.0,0
1586281909.6101232,237,1,-15.625,-40.0390625,-61.03515625,-18.5546875,0.0,0
1586281909.6140294,237,1,-21.97265625,-40.52734375,-54.19921875,-30.76171875,0.0,0
1586281909.6179357,237,1,-22.4609375,-3.41796875,-62.01171875,-36.62109375,0.0,0
1586281909.621842,237,1,-18.5546875,-13.671875,-70.80078125,-21.484375,0.0,0
1586281909.6257482,237,1,-17.578125,-56.15234375,-38.0859375,-14.6484375,0.0,0
1586281909.6296544,237,1,-26.3671875,-45.8984375,-11.71875,-8.7890625,0.0,0
1586281909.6335607,237,1,-33.203125,-32.2265625,-17.578125,-11.23046875,0.0,0
1586281909.637467,237,1,-34.1796875,-37.109375,-30.76171875,-23.92578125,0.0,0
1586281909.6413732,237,1,-19.53125,-25.390625,-17.578125,-10.7421875,0.0,0
1586281909.6452794,237,1,0.0,-16.11328125,-30.76171875,4.39453125,0.0,0
1586281909.6491857,237,1,-0.48828125,-22.94921875,-40.0390625,-8.7890625,0.0,0
1586281909.653092,237,1,-11.23046875,-28.3203125,-31.73828125,-26.3671875,0.0,0
1586281909.6569982,237,1,-16.11328125,-19.53125,-30.76171875,-34.66796875,0.0,0
1586281909.6609044,237,1,-15.625,-12.20703125,-30.76171875,-31.25,0.0,0
1586281909.6648107,237,1,-12.6953125,-25.87890625,-37.59765625,-25.390625,0.0,0
1586281909.668717,237,1,-11.23046875,-30.2734375,-69.3359375,-17.578125,0.0,0
1586281909.6726232,237,1,-16.6015625,-32.2265625,-75.1953125,-18.5546875,0.0,0
1586281909.6765294,237,1,-20.01953125,-49.31640625,-36.1328125,-23.4375,0.0,0
1586281909.6804357,237,1,-11.23046875,-51.7578125,-16.11328125,-26.85546875,0.0,0
1586281909.684342,237,1,-11.71875,-42.96875,-14.16015625,-21.484375,0.0,0
1586281909.6882482,237,1,-14.16015625,-42.96875,-19.04296875,-7.8125,0.0,0
1586281909.6921544,237,1,-25.87890625,-39.0625,-39.55078125,-9.765625,0.0,0
1586281909.6960607,237,1,-29.78515625,-14.6484375,-44.921875,-10.25390625,0.0,0
1586281909.699967,237,1,-10.25390625,-13.18359375,-33.69140625,-1.953125,0.0,0
1586281909.7038732,237,1,-0.48828125,-37.59765625,-31.73828125,-1.46484375,0.0,0
1586281909.7077794,237,1,1.46484375,-38.0859375,-21.97265625,-11.23046875,0.0,0
1586281909.7116857,237,1,-9.27734375,-35.15625,-24.4140625,-20.5078125,0.0,0
1586281909.715592,237,1,-18.06640625,-40.0390625,-52.734375,-26.3671875,0.0,0
1586281909.7194982,237,1,-8.30078125,-36.62109375,-62.98828125,-21.484375,0.0,0
1586281909.7234044,237,1,0.48828125,-26.85546875,-52.734375,-1.46484375,0.0,0
1586281909.7273107,237,1,-4.39453125,-27.34375,-48.828125,-4.39453125,0.0,0
1586281909.731217,237,1,-15.625,-31.25,-43.9453125,-23.92578125,0.0,0
1586281909.7351232,237,1,-23.92578125,-62.98828125,-31.25,-31.25,0.0,0
1586281909.7390294,237,1,-20.5078125,-60.05859375,-31.73828125,-27.34375,0.0,0
1586281909.7429357,237,1,-11.71875,-23.4375,-45.41015625,-16.11328125,0.0,0
1586281909.746842,237,1,-8.7890625,-30.2734375,-54.6875,-9.765625,0.0,0
1586281909.7507482,237,1,-12.20703125,-39.0625,-40.52734375,-8.30078125,0.0,0
1586281909.7546544,237,1,-11.71875,-28.80859375,-21.97265625,-5.859375,0.0,0
1586281909.7585607,237,1,-15.13671875,-31.25,-20.01953125,-9.27734375,0.0,0
1586281909.762467,237,1,-9.27734375,-37.109375,-35.64453125,-10.25390625,0.0,0
1586281909.7663732,237,1,-1.46484375,-41.50390625,-44.43359375,-8.30078125,0.0,0
1586281909.7702794,237,1,-7.32421875,-55.6640625,-47.36328125,-6.8359375,0.0,0
1586281909.7741857,237,1,-25.87890625,-60.546875,-57.12890625,-20.5078125,0.0,0
1586281909.778092,237,1,-21.484375,-26.85546875,-47.8515625,-21.484375,0.0,0
1586281909.7819982,237,1,1.953125,-12.6953125,-24.90234375,-3.41796875,0.0,0
1586281909.7859044,237,1,1.46484375,-24.90234375,-42.96875,3.90625,0.0,0
1586281909.7898107,237,1,-14.16015625,-35.64453125,-54.19921875,2.44140625,0.0,0
1586281909.793717,237,1,-16.6015625,-36.62109375,-45.8984375,-7.8125,0.0,0
1586281909.7976232,237,1,-14.6484375,-25.390625,-40.0390625,-13.671875,0.0,0
1586281909.8015294,237,1,-17.578125,-17.578125,-17.578125,-9.765625,0.0,0
1586281909.8054357,237,1,-23.92578125,-21.97265625,-21.484375,-9.27734375,0.0,0
1586281909.809342,237,1,-20.5078125,-32.71484375,-31.73828125,-8.30078125,0.0,0
1586281909.8132482,237,1,-22.4609375,-33.203125,-13.671875,-9.27734375,0.0,0
1586281909.8171544,237,1,-26.85546875,-34.66796875,-13.18359375,-10.25390625,0.0,0
1586281909.8210607,237,1,-19.04296875,-39.0625,-24.4140625,-4.39453125,0.0,0
1586281909.824967,237,1,-17.578125,-55.17578125,-28.80859375,-6.8359375,0.0,0
1586281909.8288732,237,1,-19.04296875,-46.875,-25.87890625,-12.20703125,0.0,0
1586281909.8327794,237,1,-11.71875,-39.55078125,-22.94921875,-18.06640625,0.0,0
1586281909.8366857,237,1,-6.8359375,-38.57421875,-36.62109375,-18.06640625,0.0,0
1586281909.840592,237,1,-11.71875,-28.80859375,-40.52734375,-22.94921875,0.0,0
1586281909.8444982,237,1,-6.34765625,-31.25,-39.55078125,-15.625,0.0,0
1586281909.8484044,237,1,-2.44140625,-27.83203125,-35.64453125,-3.90625,0.0,0
1586281909.8523107,237,1,-8.7890625,-28.3203125,-33.69140625,-7.8125,0.0,0
1586281909.856217,237,1,-13.18359375,-36.1328125,-47.36328125,-19.53125,0.0,0
1586281909.8601232,237,1,-11.71875,-43.45703125,-55.17578125,-17.08984375,0.0,0
1586281909.8640294,237,1,-3.90625,-45.41015625,-32.71484375,-4.8828125,0.0,0
1586281909.8679357,237,1,-8.30078125,-44.43359375,-27.34375,-11.23046875,0.0,0
1586281909.871842,237,1,-10.7421875,-31.73828125,-30.2734375,-4.8828125,0.0,0
1586281909.8757482,237,1,-17.08984375,-34.1796875,-38.57421875,-7.32421875,0.0,0
1586281909.8796544,237,1,-24.90234375,-41.50390625,-52.24609375,-19.04296875,0.0,0
1586281909.8835607,237,1,-14.6484375,-46.875,-41.015625,-1.46484375,0.0,0
1586281909.887467,237,1,-16.11328125,-49.31640625,-24.90234375,4.39453125,0.0,0
1586281909.8913732,237,1,-28.3203125,-33.203125,-20.5078125,-12.20703125,0.0,0
1586281909.8952794,237,1,-23.92578125,-31.25,-25.390625,-21.484375,0.0,0
1586281909.8991857,237,1,-17.08984375,-48.33984375,-44.43359375,-19.04296875,0.0,0
1586281909.903092,237,1,-2.44140625,-30.2734375,-32.71484375,-1.953125,0.0,0
1586281909.9069982,237,1,0.0,-25.87890625,-24.90234375,0.9765625,0.0,0
1586281909.9109044,237,1,-17.578125,-48.828125,-44.43359375,-24.4140625,0.0,0
1586281909.9148107,237,1,-22.4609375,-44.921875,-32.71484375,-32.71484375,0.0,0
1586281909.918717,237,1,-20.01953125,-35.15625,-28.3203125,-21.484375,0.0,0
1586281909.9226232,237,1,-13.18359375,-38.0859375,-44.921875,-15.13671875,0.0,0
1586281909.9265294,237,1,-5.859375,-35.15625,-39.0625,-13.18359375,0.0,0
1586281909.9304357,237,1,-13.671875,-32.71484375,-26.85546875,-22.4609375,0.0,0
1586281909.934342,237,1,-19.04296875,-43.45703125,-36.62109375,-26.85546875,0.0,0
1586281909.9382482,237,1,-19.04296875,-39.55078125,-32.2265625,-15.625,0.0,0
1586281909.9421544,237,1,-21.97265625,-45.8984375,-22.94921875,-26.3671875,0.0,0
1586281909.9460607,237,1,-23.4375,-49.8046875,-33.69140625,-30.2734375,0.0,0
1586281909.949967,237,1,-24.4140625,-39.55078125,-41.015625,-22.94921875,0.0,0
1586281909.9538732,237,1,-30.76171875,-32.2265625,-62.5,-31.25,0.0,0
1586281909.9577794,237,1,-33.69140625,-40.52734375,-66.89453125,-40.52734375,0.0,0
1586281909.9616857,237,1,-19.53125,-65.4296875,-36.62109375,-35.15625,0.0,0
1586281909.965592,237,1,-7.32421875,-51.7578125,-27.83203125,-15.13671875,0.0,0
1586281909.9694982,237,1,-2.9296875,-24.4140625,-29.78515625,-8.30078125,0.0,0
1586281909.9734044,237,1,-10.25390625,-28.3203125,-23.92578125,-14.16015625,0.0,0
1586281909.9773107,237,1,-25.390625,-51.7578125,-30.2734375,-22.4609375,0.0,0
1586281909.981217,237,1,-20.5078125,-53.7109375,-39.0625,-11.71875,0.0,0
1586281909.9851232,237,1,-17.578125,-38.57421875,-30.76171875,-6.8359375,0.0,0
1586281909.9890294,237,1,-25.390625,-39.55078125,-18.06640625,-11.23046875,0.0,0
1586281909.9929357,237,1,-39.55078125,-48.33984375,-36.1328125,-21.484375,0.0,0
1586281909.996842,237,1,-48.33984375,-51.26953125,-52.24609375,-32.2265625,0.0,0
1586281910.0007482,237,1,-39.0625,-51.26953125,-34.66796875,-31.25,0.0,0
1586281910.0046544,237,1,-21.484375,-46.38671875,-24.4140625,-21.97265625,0.0,0
1586281910.0085607,237,1,-15.13671875,-45.8984375,-27.83203125,-10.25390625,0.0,0
1586281910.012467,237,1,-29.78515625,-45.41015625,-38.0859375,-23.4375,0.0,0
1586281910.0163732,237,1,-30.2734375,-28.80859375,-29.296875,-29.296875,0.0,0
1586281910.0202794,237,1,-22.4609375,-31.73828125,-11.23046875,-18.5546875,0.0,0
1586281910.0241857,237,1,-20.5078125,-48.33984375,-28.80859375,-19.53125,0.0,0
1586281910.028092,237,1,-20.99609375,-57.12890625,-46.38671875,-18.06640625,0.0,0
1586281910.0319982,237,1,-27.34375,-46.875,-46.38671875,-20.5078125,0.0,0
1586281910.0359044,237,1,-30.76171875,-37.109375,-41.9921875,-32.71484375,0.0,0
1586281910.0398107,237,1,-21.97265625,-45.41015625,-33.203125,-26.3671875,0.0,0
1586281910.043717,237,1,-11.71875,-49.8046875,-13.671875,-2.9296875,0.0,0
1586281910.0476232,237,1,-13.18359375,-40.52734375,-17.578125,-4.8828125,0.0,0
1586281910.0515294,237,1,-19.53125,-33.69140625,-31.25,-15.13671875,0.0,0
1586281910.0554357,237,1,-27.83203125,-36.1328125,-36.62109375,-13.671875,0.0,0
1586281910.059342,237,1,-29.78515625,-42.48046875,-44.43359375,-26.85546875,0.0,0
1586281910.0632482,237,1,-19.04296875,-61.5234375,-54.6875,-26.3671875,0.0,0
1586281910.0671544,237,1,-9.27734375,-64.453125,-40.52734375,-14.6484375,0.0,0
1586281910.0710607,237,1,-20.5078125,-38.57421875,-30.76171875,-17.578125,0.0,0
1586281910.074967,237,1,-30.76171875,-35.64453125,-54.6875,-21.484375,0.0,0
1586281910.0788732,237,1,-32.71484375,-49.31640625,-46.875,-25.390625,0.0,0
1586281910.0827794,237,1,-27.34375,-43.45703125,-19.04296875,-19.04296875,0.0,0
1586281910.0866857,237,1,-20.99609375,-41.50390625,-24.4140625,-7.8125,0.0,0
1586281910.090592,237,1,-23.92578125,-40.52734375,-41.015625,-12.6953125,0.0,0
1586281910.0944982,237,1,-28.3203125,-35.64453125,-27.34375,-14.16015625,0.0,0
1586281910.0984044,237,1,-22.4609375,-42.48046875,-20.99609375,-7.32421875,0.0,0
1586281910.1023107,237,1,-16.11328125,-51.26953125,-35.15625,-9.765625,0.0,0
1586281910.106217,237,1,-18.5546875,-55.6640625,-42.48046875,-15.13671875,0.0,0
1586281910.1101232,237,1,-23.4375,-52.734375,-33.69140625,-14.16015625,0.0,0
1586281910.1140294,237,1,-24.4140625,-41.9921875,-26.3671875,-22.4609375,0.0,0
1586281910.1179357,237,1,-19.53125,-35.64453125,-24.4140625,-26.85546875,0.0,0
1586281910.121842,237,1,-9.765625,-27.83203125,-36.1328125,-15.13671875,0.0,0
1586281910.1257482,237,1,-9.765625,-12.20703125,-37.109375,-10.7421875,0.0,0
1586281910.1296544,237,1,-20.99609375,-16.11328125,-26.85546875,-11.23046875,0.0,0
1586281910.1335607,237,1,-35.64453125,-33.69140625,-29.296875,-11.71875,0.0,0
1586281910.137467,237,1,-36.1328125,-41.50390625,-26.85546875,-19.04296875,0.0,0
1586281910.1413732,237,1,-22.94921875,-38.0859375,-27.83203125,-21.97265625,0.0,0
1586281910.1452794,237,1,-24.4140625,-22.4609375,-46.38671875,-19.04296875,0.0,0
1586281910.1491857,237,1,-32.2265625,-33.203125,-47.8515625,-25.87890625,0.0,0
1586281910.153092,237,1,-30.76171875,-56.15234375,-42.48046875,-22.94921875,0.0,0
1586281910.1569982,237,1,-29.296875,-48.33984375,-31.25,-17.08984375,0.0,0
1586281910.1609044,237,1,-23.4375,-36.62109375,-26.3671875,-23.92578125,0.0,0
1586281910.1648107,237,1,-11.71875,-35.15625,-40.52734375,-23.4375,0.0,0
1586281910.168717,237,1,-6.34765625,-25.390625,-31.73828125,-5.37109375,0.0,0
1586281910.1726232,237,1,-23.92578125,-24.90234375,-31.73828125,-14.16015625,0.0,0
1586281910.1765294,237,1,-36.1328125,-30.2734375,-35.15625,-30.76171875,0.0,0
1586281910.1804357,237,1,-20.99609375,-32.71484375,-27.34375,-22.94921875,0.0,0
1586281910.184342,237,1,-27.34375,-35.64453125,-22.4609375,-26.85546875,0.0,0
1586281910.1882482,237,1,-50.29296875,-36.62109375,-33.69140625,-26.85546875,0.0,0
1586281910.1921544,237,1,-74.21875,-47.8515625,-62.01171875,-45.8984375,0.0,0
1586281910.1960607,237,1,-86.9140625,-56.15234375,-52.734375,-63.96484375,0.0,0
1586281910.199967,237,1,-73.73046875,-54.19921875,-29.296875,-53.7109375,0.0,0
1586281910.2038732,237,1,-54.6875,-48.33984375,-25.390625,-40.0390625,0.0,0
1586281910.2077794,237,1,-52.24609375,-64.94140625,-26.85546875,-32.2265625,0.0,0
1586281910.2116857,237,1,-57.6171875,-70.80078125,-31.25,-39.0625,0.0,0
1586281910.215592,237,1,-50.78125,-52.24609375,-22.94921875,-42.48046875,0.0,0
1586281910.2194982,237,1,-37.109375,-49.8046875,-27.34375,-30.76171875,0.0,0
1586281910.2234044,237,1,-29.78515625,-40.52734375,-37.109375,-25.390625,0.0,0
1586281910.2273107,237,1,-36.1328125,-37.59765625,-38.0859375,-31.25,0.0,0
1586281910.231217,237,1,-43.9453125,-60.05859375,-37.59765625,-33.203125,0.0,0
1586281910.2351232,237,1,-44.43359375,-49.8046875,-43.45703125,-29.296875,0.0,0
1586281910.2390294,237,1,-41.50390625,-28.80859375,-36.1328125,-37.109375,0.0,0
1586281910.2429357,237,1,-32.71484375,-23.4375,-27.83203125,-26.85546875,0.0,0
1586281910.246842,237,1,-32.2265625,-27.34375,-30.76171875,-13.671875,0.0,0
1586281910.2507482,237,1,-35.64453125,-31.73828125,-23.92578125,-21.484375,0.0,0
1586281910.2546544,237,1,-31.25,-43.45703125,-23.92578125,-22.4609375,0.0,0
1586281910.2585607,237,1,-30.2734375,-45.41015625,-21.97265625,-25.390625,0.0,0
1586281910.262467,237,1,-19.04296875,-29.78515625,-26.85546875,-10.25390625,0.0,0
1586281910.2663732,237,1,-12.20703125,-29.296875,-47.36328125,3.90625,0.0,0
1586281910.2702794,237,1,-20.99609375,-44.921875,-40.0390625,-9.765625,0.0,0
1586281910.2741857,237,1,-30.76171875,-56.15234375,-27.83203125,-25.390625,0.0,0
1586281910.278092,237,1,-30.76171875,-49.31640625,-28.3203125,-20.01953125,0.0,0
1586281910.2819982,237,1,-17.578125,-50.29296875,-20.5078125,-18.5546875,0.0,0
1586281910.2859044,237,1,-11.23046875,-51.26953125,-21.484375,-28.80859375,0.0,0
1586281910.2898107,237,1,-15.13671875,-38.0859375,-41.50390625,-27.83203125,0.0,0
1586281910.293717,237,1,-14.16015625,-15.625,-51.7578125,-25.87890625,0.0,0
1586281910.2976232,237,1,-13.671875,-22.94921875,-33.69140625,-32.2265625,0.0,0
1586281910.3015294,237,1,-7.8125,-41.50390625,-26.85546875,-25.87890625,0.0,0
1586281910.3054357,237,1,-0.9765625,-22.4609375,-26.3671875,-9.27734375,0.0,0
1586281910.309342,237,1,-18.06640625,-8.30078125,-43.9453125,-7.32421875,0.0,0
1586281910.3132482,237,1,-38.57421875,-26.85546875,-77.63671875,-20.01953125,0.0,0
1586281910.3171544,237,1,-34.66796875,-42.48046875,-51.7578125,-34.1796875,0.0,0
1586281910.3210607,237,1,-33.203125,-60.546875,-18.5546875,-31.25,0.0,0
1586281910.324967,237,1,-47.8515625,-68.84765625,-22.4609375,-21.97265625,0.0,0
1586281910.3288732,237,1,-37.109375,-39.0625,-32.71484375,-25.390625,0.0,0
1586281910.3327794,237,1,-22.4609375,-24.4140625,-29.78515625,-24.4140625,0.0,0
1586281910.3366857,237,1,-14.6484375,-59.5703125,-25.87890625,-20.99609375,0.0,0
1586281910.340592,237,1,-2.9296875,-49.8046875,-34.66796875,-11.71875,0.0,0
1586281910.3444982,237,1,-1.46484375,-1.46484375,-48.33984375,-9.765625,0.0,0
1586281910.3484044,237,1,-6.34765625,-2.44140625,-54.19921875,-12.20703125,0.0,0
1586281910.3523107,237,1,-16.6015625,-30.76171875,-38.0859375,-12.20703125,0.0,0
1586281910.356217,237,1,-31.73828125,-44.921875,-36.62109375,-24.90234375,0.0,0
1586281910.3601232,237,1,-29.78515625,-34.66796875,-36.1328125,-22.4609375,0.0,0
1586281910.3640294,237,1,-21.97265625,-35.64453125,-44.921875,-10.7421875,0.0,0
1586281910.3679357,237,1,-31.73828125,-57.12890625,-43.45703125,-23.92578125,0.0,0
1586281910.371842,237,1,-32.2265625,-48.828125,-23.92578125,-32.71484375,0.0,0
1586281910.3757482,237,1,-32.71484375,-38.57421875,-29.296875,-21.97265625,0.0,0
1586281910.3796544,237,1,-29.296875,-36.62109375,-41.50390625,-10.25390625,0.0,0
1586281910.3835607,237,1,-6.8359375,-29.296875,-44.43359375,2.9296875,0.0,0
1586281910.387467,237,1,-6.34765625,-39.55078125,-53.7109375,-1.46484375,0.0,0
1586281910.3913732,237,1,-21.97265625,-62.01171875,-64.94140625,-11.71875,0.0,0
1586281910.3952794,237,1,-34.1796875,-55.17578125,-52.734375,-23.4375,0.0,0
1586281910.3991857,237,1,-30.2734375,-23.4375,-20.99609375,-27.83203125,0.0,0
1586281910.403092,237,1,-17.08984375,-24.4140625,-10.7421875,-25.390625,0.0,0
1586281910.4069982,237,1,-7.8125,-40.0390625,-28.80859375,-33.203125,0.0,0
1586281910.4109044,237,1,-12.20703125,-34.1796875,-21.484375,-22.94921875,0.0,0
1586281910.4148107,237,1,-17.578125,-36.1328125,-6.34765625,-11.23046875,0.0,0
1586281910.418717,237,1,-20.5078125,-29.78515625,-16.11328125,-13.671875,0.0,0
1586281910.4226232,237,1,-15.625,-24.90234375,-21.484375,-12.20703125,0.0,0
1586281910.4265294,237,1,-4.39453125,-36.62109375,-30.2734375,-9.27734375,0.0,0
1586281910.4304357,237,1,-25.390625,-40.0390625,-34.1796875,-6.34765625,0.0,0
1586281910.434342,237,1,-36.62109375,-37.59765625,-27.83203125,-12.20703125,0.0,0
1586281910.4382482,237,1,-29.78515625,-34.1796875,-34.66796875,-15.13671875,0.0,0
1586281910.4421544,237,1,-20.01953125,-39.0625,-58.59375,-19.04296875,0.0,0
1586281910.4460607,237,1,-13.18359375,-53.22265625,-77.63671875,-21.97265625,0.0,0
1586281910.449967,237,1,-20.5078125,-40.0390625,-62.5,-18.06640625,0.0,0
1586281910.4538732,237,1,-20.01953125,-21.97265625,-20.5078125,-9.765625,0.0,0
1586281910.4577794,237,1,-18.06640625,-30.2734375,-3.41796875,-9.27734375,0.0,0
1586281910.4616857,237,1,-15.625,-41.9921875,-35.15625,-13.18359375,0.0,0
1586281910.465592,237,1,-7.32421875,-32.2265625,-48.828125,-10.25390625,0.0,0
1586281910.4694982,237,1,-10.7421875,-20.01953125,-36.1328125,-16.11328125,0.0,0
1586281910.4734044,237,1,-20.01953125,-16.11328125,-33.203125,-16.6015625,0.0,0
1586281910.4773107,237,1,-21.484375,-20.99609375,-43.45703125,-27.34375,0.0,0
1586281910.481217,237,1,-15.13671875,-34.66796875,-47.36328125,-27.83203125,0.0,0
1586281910.4851232,237,1,-5.859375,-43.9453125,-38.57421875,-11.71875,0.0,0
1586281910.4890294,237,1,-12.6953125,-41.9921875,-29.296875,-8.7890625,0.0,0
1586281910.4929357,237,1,-18.06640625,-38.0859375,-29.78515625,-8.7890625,0.0,0
1586281910.496842,237,1,-17.578125,-41.50390625,-42.48046875,-20.01953125,0.0,0
1586281910.5007482,237,1,-12.20703125,-44.921875,-36.62109375,-19.04296875,0.0,0
1586281910.5046544,237,1,-3.90625,-52.734375,-32.71484375,-11.71875,0.0,0
1586281910.5085607,237,1,-19.04296875,-47.8515625,-27.83203125,-14.6484375,0.0,0
1586281910.512467,237,1,-32.71484375,-25.390625,-9.27734375,-11.71875,0.0,0
1586281910.5163732,237,1,-23.4375,-34.66796875,-12.20703125,-14.6484375,0.0,0
1586281910.5202794,237,1,-16.11328125,-42.96875,-44.43359375,-20.5078125,0.0,0
1586281910.5241857,237,1,-7.8125,-23.92578125,-55.17578125,-2.44140625,0.0,0
1586281910.528092,237,1,-8.7890625,-23.92578125,-56.15234375,-12.6953125,0.0,0
1586281910.5319982,237,1,-15.625,-34.66796875,-44.921875,-26.85546875,0.0,0
1586281910.5359044,237,1,-28.80859375,-40.52734375,-33.69140625,-31.73828125,0.0,0
1586281910.5398107,237,1,-14.16015625,-48.33984375,-19.04296875,-28.3203125,0.0,0
1586281910.543717,237,1,8.7890625,-51.26953125,-9.27734375,-6.34765625,0.0,0
1586281910.5476232,237,1,-1.953125,-38.0859375,-44.43359375,-5.859375,0.0,0
1586281910.5515294,237,1,-8.7890625,-34.1796875,-42.48046875,-16.6015625,0.0,0
1586281910.5554357,237,1,-20.99609375,-35.15625,-21.484375,-21.484375,0.0,0
1586281910.559342,237,1,-20.5078125,-35.15625,-32.2265625,-20.01953125,0.0,0
1586281910.5632482,237,1,7.32421875,-45.41015625,-38.0859375,-7.32421875,0.0,0
1586281910.5671544,237,1,0.9765625,-60.05859375,-44.921875,-4.8828125,0.0,0
1586281910.5710607,237,1,-17.578125,-57.12890625,-53.22265625,-16.6015625,0.0,0
1586281910.574967,237,1,-23.92578125,-42.48046875,-44.921875,-31.73828125,0.0,0
1586281910.5788732,237,1,-20.99609375,-34.1796875,-36.62109375,-21.484375,0.0,0
1586281910.5827794,237,1,-15.13671875,-34.66796875,-30.2734375,-3.90625,0.0,0
1586281910.5866857,237,1,-23.92578125,-33.203125,-27.34375,-8.30078125,0.0,0
1586281910.590592,237,1,-31.73828125,-42.96875,-26.85546875,-17.578125,0.0,0
1586281910.5944982,237,1,-39.0625,-48.33984375,-28.80859375,-19.53125,0.0,0
1586281910.5984044,237,1,-31.25,-43.45703125,-38.0859375,-8.7890625,0.0,0
1586281910.6023107,237,1,-12.20703125,-43.9453125,-40.0390625,-2.44140625,0.0,0
1586281910.606217,237,1,-20.99609375,-47.36328125,-26.85546875,0.48828125,0.0,0
1586281910.6101232,237,1,-18.06640625,-53.7109375,-27.83203125,-0.9765625,0.0,0
1586281910.6140294,237,1,-18.5546875,-49.8046875,-42.48046875,-13.671875,0.0,0
1586281910.6179357,237,1,-28.80859375,-35.15625,-55.17578125,-19.53125,0.0,0
1586281910.621842,237,1,-9.765625,-29.296875,-39.0625,-5.859375,0.0,0
1586281910.6257482,237,1,7.8125,-21.97265625,-21.484375,3.90625,0.0,0
1586281910.6296544,237,1,-15.625,-20.99609375,-40.0390625,-7.8125,0.0,0
1586281910.6335607,237,1,-31.73828125,-21.97265625,-58.59375,-24.4140625,0.0,0
1586281910.637467,237,1,-21.484375,-27.83203125,-51.7578125,-27.34375,0.0,0
1586281910.6413732,237,1,-14.16015625,-25.390625,-45.41015625,-17.578125,0.0,0
1586281910.6452794,237,1,-15.625,-27.83203125,-34.66796875,-21.484375,0.0,0
1586281910.6491857,237,1,-24.90234375,-37.109375,-27.83203125,-19.53125,0.0,0
1586281910.653092,237,1,-39.0625,-35.64453125,-39.55078125,-7.8125,0.0,0
1586281910.6569982,237,1,-22.4609375,-36.1328125,-52.734375,-9.27734375,0.0,0
1586281910.6609044,237,1,-10.7421875,-41.015625,-60.546875,-8.30078125,0.0,0
1586281910.6648107,237,1,-6.34765625,-41.015625,-49.8046875,4.8828125,0.0,0
1586281910.668717,237,1,-3.90625,-34.1796875,-32.71484375,16.11328125,0.0,0
1586281910.6726232,237,1,-9.765625,-28.3203125,-27.83203125,2.9296875,0.0,0
1586281910.6765294,237,1,-15.13671875,-24.4140625,-20.99609375,-10.25390625,0.0,0
1586281910.6804357,237,1,-15.13671875,-24.4140625,-30.2734375,-15.625,0.0,0
1586281910.684342,237,1,-11.71875,-32.71484375,-33.203125,-12.20703125,0.0,0
1586281910.6882482,237,1,-17.08984375,-39.0625,-27.83203125,-9.27734375,0.0,0
1586281910.6921544,237,1,-29.296875,-38.57421875,-35.15625,-19.53125,0.0,0
1586281910.6960607,237,1,-31.73828125,-28.80859375,-36.62109375,-31.25,0.0,0
1586281910.699967,237,1,-23.92578125,-21.484375,-24.90234375,-24.4140625,0.0,0
1586281910.7038732,237,1,-25.390625,-30.76171875,-14.16015625,-24.90234375,0.0,0
1586281910.7077794,237,1,-26.85546875,-40.0390625,-18.06640625,-38.57421875,0.0,0
1586281910.7116857,237,1,-28.3203125,-28.3203125,-45.41015625,-36.62109375,0.0,0
1586281910.715592,237,1,-44.43359375,-29.78515625,-57.12890625,-38.57421875,0.0,0
1586281910.7194982,237,1,-46.38671875,-51.7578125,-39.0625,-45.8984375,0.0,0
1586281910.7234044,237,1,-19.04296875,-50.29296875,-40.52734375,-29.296875,0.0,0
1586281910.7273107,237,1,-6.34765625,-38.0859375,-39.55078125,-11.71875,0.0,0
1586281910.731217,237,1,-17.08984375,-34.1796875,-37.59765625,-12.6953125,0.0,0
1586281910.7351232,237,1,-20.01953125,-42.96875,-38.57421875,-12.20703125,0.0,0
1586281910.7390294,237,1,-13.671875,-52.24609375,-31.25,-8.30078125,0.0,0
1586281910.7429357,237,1,-6.34765625,-36.62109375,-27.83203125,-8.7890625,0.0,0
1586281910.746842,237,1,-4.39453125,-32.71484375,-24.4140625,-8.7890625,0.0,0
1586281910.7507482,237,1,-16.6015625,-49.31640625,-34.66796875,-14.16015625,0.0,0
1586281910.7546544,237,1,-17.08984375,-41.50390625,-38.57421875,-24.90234375,0.0,0
1586281910.7585607,237,1,-9.27734375,-44.43359375,-18.5546875,-13.671875,0.0,0
1586281910.762467,237,1,4.39453125,-30.2734375,-13.671875,-8.7890625,0.0,0
1586281910.7663732,237,1,4.39453125,-10.7421875,-32.71484375,-18.06640625,0.0,0
1586281910.7702794,237,1,-17.578125,-29.78515625,-45.8984375,-19.53125,0.0,0
1586281910.7741857,237,1,-19.53125,-43.45703125,-45.41015625,-21.484375,0.0,0
1586281910.778092,237,1,-12.6953125,-24.4140625,-38.57421875,-21.97265625,0.0,0
1586281910.7819982,237,1,-15.13671875,-9.27734375,-22.4609375,-12.20703125,0.0,0
1586281910.7859044,237,1,-5.37109375,-25.87890625,-18.06640625,-9.765625,0.0,0
1586281910.7898107,237,1,-15.13671875,-38.57421875,-37.109375,-20.5078125,0.0,0
1586281910.793717,237,1,-34.66796875,-36.62109375,-37.59765625,-18.06640625,0.0,0
1586281910.7976232,237,1,-31.25,-41.015625,-38.57421875,-9.27734375,0.0,0
1586281910.8015294,237,1,-28.3203125,-39.55078125,-38.57421875,-5.37109375,0.0,0
1586281910.8054357,237,1,-33.69140625,-36.1328125,-28.80859375,-2.9296875,0.0,0
1586281910.809342,237,1,-28.3203125,-40.52734375,-45.8984375,-11.71875,0.0,0
1586281910.8132482,237,1,-35.64453125,-41.015625,-58.59375,-24.90234375,0.0,0
1586281910.8171544,237,1,-33.69140625,-30.2734375,-37.59765625,-24.90234375,0.0,0
1586281910.8210607,237,1,-10.7421875,-19.53125,-11.23046875,-16.11328125,0.0,0
1586281910.824967,237,1,-0.48828125,-24.90234375,-7.32421875,-11.71875,0.0,0
1586281910.8288732,237,1,-2.9296875,-25.87890625,-26.85546875,-7.8125,0.0,0
1586281910.8327794,237,1,-11.23046875,-37.59765625,-31.73828125,-7.32421875,0.0,0
1586281910.8366857,237,1,-4.39453125,-53.22265625,-21.97265625,-18.5546875,0.0,0
1586281910.840592,237,1,-9.27734375,-39.0625,-33.69140625,-22.94921875,0.0,0
1586281910.8444982,237,1,-30.2734375,-20.99609375,-54.19921875,-9.27734375,0.0,0
1586281910.8484044,237,1,-11.23046875,-8.7890625,-49.8046875,-3.41796875,0.0,0
1586281910.8523107,237,1,-17.578125,-17.08984375,-32.2265625,-25.390625,0.0,0
1586281910.856217,237,1,-37.109375,-34.66796875,-25.390625,-38.57421875,0.0,0
1586281910.8601232,237,1,-38.0859375,-44.43359375,-49.31640625,-37.59765625,0.0,0
1586281910.8640294,237,1,-41.50390625,-50.29296875,-77.1484375,-31.73828125,0.0,0
1586281910.8679357,237,1,-34.1796875,-42.48046875,-56.640625,-29.78515625,0.0,0
1586281910.871842,237,1,-33.203125,-41.9921875,-27.83203125,-28.80859375,0.0,0
1586281910.8757482,237,1,-32.2265625,-41.015625,-19.04296875,-19.53125,0.0,0
1586281910.8796544,237,1,-22.94921875,-61.5234375,-23.4375,-7.8125,0.0,0
1586281910.8835607,237,1,-13.671875,-52.734375,-30.76171875,8.30078125,0.0,0
1586281910.887467,237,1,-7.8125,-15.13671875,-30.2734375,12.20703125,0.0,0
1586281910.8913732,237,1,-12.6953125,-16.6015625,-20.01953125,3.90625,0.0,0
1586281910.8952794,237,1,-33.69140625,-30.76171875,-23.92578125,-6.34765625,0.0,0
1586281910.8991857,237,1,-32.2265625,-28.3203125,-33.69140625,-13.18359375,0.0,0
1586281910.903092,237,1,-21.484375,-40.52734375,-28.3203125,-15.13671875,0.0,0
1586281910.9069982,237,1,-10.7421875,-69.82421875,-15.625,-9.27734375,0.0,0
1586281910.9109044,237,1,-17.08984375,-62.5,-42.96875,-9.27734375,0.0,0
1586281910.9148107,238,3,-32.71484375,-41.9921875,-73.2421875,-20.99609375,0.0,0
1586281910.918717,238,3,-16.11328125,-22.94921875,-44.43359375,-28.3203125,0.0,0
1586281910.9226232,238,3,4.8828125,0.0,-20.01953125,-6.8359375,0.0,0
1586281910.9265294,238,3,1.46484375,-12.20703125,-34.66796875,-4.39453125,0.0,0
1586281910.9304357,238,3,-15.625,-28.3203125,-36.1328125,-25.390625,0.0,0
1586281910.934342,238,3,-24.90234375,-27.34375,-20.5078125,-16.6015625,0.0,0
1586281910.9382482,238,3,-31.73828125,-32.2265625,-23.92578125,-18.5546875,0.0,0
1586281910.9421544,238,3,-21.484375,-49.31640625,-35.64453125,-27.83203125,0.0,0
1586281910.9460607,238,3,-5.37109375,-42.48046875,-40.0390625,-19.53125,0.0,0
1586281910.949967,238,3,-19.53125,-37.59765625,-41.015625,-22.94921875,0.0,0
1586281910.9538732,238,3,-29.78515625,-36.1328125,-48.33984375,-29.296875,0.0,0
1586281910.9577794,238,3,-19.53125,-24.90234375,-44.921875,-20.5078125,0.0,0
1586281910.9616857,238,3,-14.16015625,-46.875,-43.9453125,-9.765625,0.0,0
1586281910.965592,238,3,-14.6484375,-50.29296875,-55.17578125,-6.8359375,0.0,0
1586281910.9694982,238,3,-19.53125,-52.734375,-42.48046875,-13.671875,0.0,0
1586281910.9734044,238,3,-23.92578125,-53.22265625,-27.83203125,-20.99609375,0.0,0
1586281910.9773107,238,3,-18.06640625,-35.64453125,-31.73828125,-22.4609375,0.0,0
1586281910.981217,238,3,-14.6484375,-40.0390625,-31.25,-18.06640625,0.0,0
1586281910.9851232,238,3,-11.23046875,-46.38671875,-22.4609375,-8.7890625,0.0,0
1586281910.9890294,238,3,-13.18359375,-47.36328125,-28.3203125,-17.08984375,0.0,0
1586281910.9929357,238,3,-21.97265625,-49.8046875,-24.90234375,-34.1796875,0.0,0
1586281910.996842,238,3,-31.73828125,-44.921875,-17.578125,-34.1796875,0.0,0
1586281911.0007482,238,3,-29.296875,-43.45703125,-33.69140625,-23.4375,0.0,0
1586281911.0046544,238,3,-11.23046875,-78.125,-53.7109375,-15.625,0.0,0
1586281911.0085607,238,3,-17.578125,-70.80078125,-40.52734375,-9.765625,0.0,0
1586281911.012467,238,3,-36.62109375,-25.390625,-9.27734375,-20.01953125,0.0,0
1586281911.0163732,238,3,-41.9921875,-18.06640625,-21.97265625,-34.66796875,0.0,0
1586281911.0202794,238,3,-43.45703125,-26.3671875,-54.6875,-36.1328125,0.0,0
1586281911.0241857,238,3,-31.73828125,-31.25,-53.7109375,-26.3671875,0.0,0
1586281911.028092,238,3,-22.4609375,-47.36328125,-45.8984375,-18.5546875,0.0,0
1586281911.0319982,238,3,-32.71484375,-49.31640625,-41.50390625,-28.3203125,0.0,0
1586281911.0359044,238,3,-39.55078125,-37.109375,-25.390625,-42.96875,0.0,0
1586281911.0398107,238,3,-24.4140625,-38.57421875,-14.6484375,-37.109375,0.0,0
1586281911.043717,238,3,-16.11328125,-33.69140625,-31.73828125,-15.625,0.0,0
1586281911.0476232,238,3,-18.5546875,-23.92578125,-46.38671875,-12.20703125,0.0,0
1586281911.0515294,238,3,-21.484375,-38.57421875,-42.48046875,-14.16015625,0.0,0
1586281911.0554357,238,3,-36.62109375,-46.875,-35.15625,-9.27734375,0.0,0
1586281911.059342,238,3,-25.390625,-34.66796875,-25.87890625,-12.6953125,0.0,0
1586281911.0632482,238,3,2.44140625,-39.55078125,-33.203125,-1.953125,0.0,0
1586281911.0671544,238,3,4.8828125,-27.34375,-65.4296875,6.34765625,0.0,0
1586281911.0710607,238,3,-6.8359375,-25.87890625,-56.640625,0.48828125,0.0,0
1586281911.074967,238,3,-10.25390625,-41.9921875,-26.3671875,-5.37109375,0.0,0
1586281911.0788732,238,3,-13.671875,-45.41015625,-26.85546875,-13.18359375,0.0,0
1586281911.0827794,238,3,-11.23046875,-37.109375,-45.8984375,-12.6953125,0.0,0
1586281911.0866857,238,3,-7.32421875,-32.2265625,-63.96484375,-4.8828125,0.0,0
1586281911.090592,238,3,-34.66796875,-38.57421875,-51.7578125,-12.6953125,0.0,0
1586281911.0944982,238,3,-46.38671875,-35.64453125,-23.4375,-29.78515625,0.0,0
1586281911.0984044,238,3,-31.73828125,-48.33984375,-26.3671875,-20.01953125,0.0,0
1586281911.1023107,238,3,-17.08984375,-41.015625,-31.25,1.46484375,0.0,0
1586281911.106217,238,3,-7.32421875,-27.34375,-15.13671875,1.46484375,0.0,0
1586281911.1101232,238,3,-11.71875,-30.2734375,-11.23046875,-14.6484375,0.0,0
1586281911.1140294,238,3,-29.78515625,-26.85546875,-22.94921875,-26.3671875,0.0,0
1586281911.1179357,238,3,-35.15625,-34.66796875,-36.62109375,-29.78515625,0.0,0
1586281911.121842,238,3,-8.7890625,-39.55078125,-39.55078125,-23.4375,0.0,0
1586281911.1257482,238,3,2.44140625,-23.92578125,-39.55078125,-10.7421875,0.0,0
1586281911.1296544,238,3,-9.27734375,-23.4375,-40.0390625,-12.20703125,0.0,0
1586281911.1335607,238,3,-25.390625,-35.15625,-36.1328125,-24.90234375,0.0,0
1586281911.137467,238,3,-37.59765625,-41.015625,-31.73828125,-40.0390625,0.0,0
1586281911.1413732,238,3,-23.4375,-20.5078125,-28.3203125,-16.11328125,0.0,0
1586281911.1452794,238,3,-10.25390625,-22.4609375,-27.83203125,3.41796875,0.0,0
1586281911.1491857,238,3,-20.99609375,-41.50390625,-23.92578125,-15.625,0.0,0
1586281911.153092,238,3,-33.203125,-37.59765625,-29.78515625,-25.390625,0.0,0
1586281911.1569982,238,3,-31.25,-28.80859375,-33.69140625,-38.0859375,0.0,0
1586281911.1609044,238,3,-22.94921875,-27.34375,-21.484375,-39.0625,0.0,0
1586281911.1648107,238,3,-13.671875,-27.83203125,-28.80859375,-13.671875,0.0,0
1586281911.168717,238,3,-5.37109375,-37.59765625,-44.921875,-6.8359375,0.0,0
1586281911.1726232,238,3,-29.296875,-42.96875,-43.9453125,-26.85546875,0.0,0
1586281911.1765294,238,3,-30.2734375,-29.296875,-21.97265625,-31.73828125,0.0,0
1586281911.1804357,238,3,-20.01953125,-65.4296875,-12.20703125,-28.80859375,0.0,0
1586281911.184342,238,3,-15.625,-78.61328125,-50.29296875,-14.6484375,0.0,0
1586281911.1882482,238,3,-18.5546875,-33.203125,-61.03515625,-8.30078125,0.0,0
1586281911.1921544,238,3,-32.2265625,-15.625,-35.64453125,-16.11328125,0.0,0
1586281911.1960607,238,3,-32.71484375,-15.13671875,-15.13671875,-20.5078125,0.0,0
1586281911.199967,238,3,-32.71484375,-20.01953125,-6.34765625,-25.87890625,0.0,0
1586281911.2038732,238,3,-25.87890625,-27.83203125,-21.97265625,-27.83203125,0.0,0
1586281911.2077794,238,3,-17.08984375,-27.83203125,-41.015625,-18.5546875,0.0,0
1586281911.2116857,238,3,-14.16015625,-32.71484375,-48.33984375,-15.13671875,0.0,0
1586281911.215592,238,3,-14.6484375,-34.66796875,-50.29296875,-21.97265625,0.0,0
1586281911.2194982,238,3,-14.6484375,-30.2734375,-45.8984375,-27.34375,0.0,0
1586281911.2234044,238,3,-4.39453125,-24.4140625,-37.109375,-13.18359375,0.0,0
1586281911.2273107,238,3,17.08984375,-20.99609375,-46.875,-12.20703125,0.0,0
1586281911.231217,238,3,19.53125,-19.53125,-51.26953125,-21.97265625,0.0,0
1586281911.2351232,238,3,5.859375,-25.390625,-49.31640625,-25.87890625,0.0,0
1586281911.2390294,238,3,5.859375,-43.45703125,-53.22265625,-28.80859375,0.0,0
1586281911.2429357,238,3,12.20703125,-46.38671875,-57.12890625,-28.80859375,0.0,0
1586281911.246842,238,3,12.6953125,-32.2265625,-54.19921875,-22.94921875,0.0,0
1586281911.2507482,238,3,3.41796875,-22.94921875,-52.24609375,-21.97265625,0.0,0
1586281911.2546544,238,3,-5.37109375,-32.2265625,-45.41015625,-24.4140625,0.0,0
1586281911.2585607,238,3,-4.39453125,-55.6640625,-38.0859375,-19.53125,0.0,0
1586281911.262467,238,3,3.90625,-37.109375,-42.96875,-7.32421875,0.0,0
1586281911.2663732,238,3,8.30078125,-22.94921875,-55.6640625,-0.48828125,0.0,0
1586281911.2702794,238,3,-3.41796875,-28.80859375,-62.98828125,-7.8125,0.0,0
1586281911.2741857,238,3,-14.6484375,-18.06640625,-49.8046875,-20.01953125,0.0,0
1586281911.278092,238,3,-12.20703125,-20.99609375,-17.578125,-20.01953125,0.0,0
1586281911.2819982,238,3,-7.8125,-35.64453125,-5.859375,-4.39453125,0.0,0
1586281911.2859044,238,3,1.46484375,-40.52734375,-9.765625,7.32421875,0.0,0
1586281911.2898107,238,3,-9.765625,-33.203125,-18.5546875,-8.7890625,0.0,0
1586281911.293717,238,3,-37.109375,-27.34375,-38.0859375,-25.390625,0.0,0
1586281911.2976232,238,3,-41.015625,-25.390625,-41.50390625,-21.97265625,0.0,0
1586281911.3015294,238,3,-22.4609375,-38.57421875,-24.90234375,-14.6484375,0.0,0
1586281911.3054357,238,3,-7.32421875,-45.41015625,-12.20703125,0.0,0.0,0
1586281911.309342,238,3,-5.859375,-42.48046875,-36.62109375,-5.37109375,0.0,0
1586281911.3132482,238,3,-19.53125,-35.64453125,-70.3125,-16.6015625,0.0,0
1586281911.3171544,238,3,-33.203125,-40.52734375,-72.75390625,-29.296875,0.0,0
1586281911.3210607,238,3,-6.34765625,-42.96875,-44.43359375,-18.06640625,0.0,0
1586281911.324967,238,3,6.8359375,-27.83203125,-30.76171875,1.953125,0.0,0
1586281911.3288732,238,3,-1.46484375,-27.34375,-46.875,-7.32421875,0.0,0
1586281911.3327794,238,3,-11.23046875,-38.0859375,-42.96875,-21.484375,0.0,0
1586281911.3366857,238,3,-17.08984375,-37.59765625,-33.203125,-16.11328125,0.0,0
1586281911.340592,238,3,-9.765625,-27.34375,-34.66796875,-4.39453125,0.0,0
1586281911.3444982,238,3,-2.9296875,-30.2734375,-25.87890625,4.39453125,0.0,0
1586281911.3484044,238,3,-4.8828125,-39.55078125,-15.13671875,12.6953125,0.0,0
1586281911.3523107,238,3,-19.04296875,-54.19921875,-23.92578125,-3.90625,0.0,0
1586281911.356217,238,3,-23.4375,-50.78125,-49.8046875,-12.20703125,0.0,0
1586281911.3601232,238,3,-17.08984375,-29.78515625,-45.8984375,-11.23046875,0.0,0
1586281911.3640294,238,3,-5.37109375,-22.4609375,-28.3203125,-14.16015625,0.0,0
1586281911.3679357,238,3,-6.8359375,-18.5546875,-39.0625,-16.11328125,0.0,0
1586281911.371842,238,3,-18.5546875,-10.7421875,-56.640625,-14.6484375,0.0,0
1586281911.3757482,238,3,-21.484375,-35.64453125,-40.0390625,-13.18359375,0.0,0
1586281911.3796544,238,3,-20.99609375,-52.734375,-12.6953125,-16.11328125,0.0,0
1586281911.3835607,238,3,-21.97265625,-46.38671875,-14.16015625,-19.04296875,0.0,0
1586281911.387467,238,3,-24.90234375,-37.59765625,-18.06640625,-14.6484375,0.0,0
1586281911.3913732,238,3,-22.4609375,-30.2734375,-23.4375,-11.23046875,0.0,0
1586281911.3952794,238,3,-22.4609375,-36.62109375,-21.97265625,-15.13671875,0.0,0
1586281911.3991857,238,3,-23.4375,-36.62109375,-20.99609375,-16.6015625,0.0,0
1586281911.403092,238,3,-7.8125,-31.73828125,-22.94921875,-12.6953125,0.0,0
1586281911.4069982,238,3,-13.18359375,-53.22265625,-27.83203125,-12.6953125,0.0,0
1586281911.4109044,238,3,-27.34375,-68.359375,-34.1796875,-14.6484375,0.0,0
1586281911.4148107,238,3,-28.3203125,-60.05859375,-38.0859375,-20.5078125,0.0,0
1586281911.418717,238,3,-26.85546875,-43.9453125,-40.52734375,-16.6015625,0.0,0
1586281911.4226232,238,3,-12.6953125,-31.25,-40.0390625,-15.13671875,0.0,0
1586281911.4265294,238,3,-8.30078125,-33.203125,-40.0390625,-23.4375,0.0,0
1586281911.4304357,238,3,-17.08984375,-31.25,-38.0859375,-23.4375,0.0,0
1586281911.434342,238,3,-14.6484375,-30.2734375,-35.15625,-22.4609375,0.0,0
1586281911.4382482,238,3,-6.34765625,-40.0390625,-35.15625,-23.4375,0.0,0
1586281911.4421544,238,3,-5.859375,-35.64453125,-35.15625,-19.04296875,0.0,0
1586281911.4460607,238,3,-7.32421875,-31.73828125,-33.203125,-12.6953125,0.0,0
1586281911.449967,238,3,-6.8359375,-33.69140625,-33.69140625,-7.32421875,0.0,0
1586281911.4538732,238,3,-11.23046875,-41.015625,-31.25,-7.8125,0.0,0
1586281911.4577794,238,3,-14.6484375,-41.9921875,-29.296875,-16.6015625,0.0,0
1586281911.4616857,238,3,-7.32421875,-39.55078125,-39.55078125,-16.6015625,0.0,0
1586281911.465592,238,3,0.0,-44.43359375,-39.55078125,5.859375,0.0,0
1586281911.4694982,238,3,-5.859375,-44.921875,-30.76171875,-2.9296875,0.0,0
1586281911.4734044,238,3,-17.578125,-31.25,-26.3671875,-20.5078125,0.0,0
1586281911.4773107,238,3,-25.390625,-33.69140625,-27.83203125,-16.6015625,0.0,0
1586281911.481217,238,3,-23.4375,-55.6640625,-33.69140625,-19.53125,0.0,0
1586281911.4851232,238,3,-19.04296875,-60.546875,-32.2265625,-14.6484375,0.0,0
1586281911.4890294,238,3,-20.01953125,-39.55078125,-23.92578125,-10.7421875,0.0,0
1586281911.4929357,238,3,-22.4609375,-30.76171875,-25.390625,-5.37109375,0.0,0
1586281911.496842,238,3,-23.92578125,-31.73828125,-35.64453125,0.0,0.0,0
1586281911.5007482,238,3,-22.4609375,-24.90234375,-40.0390625,-9.27734375,0.0,0
1586281911.5046544,238,3,-20.5078125,-35.64453125,-30.2734375,-23.92578125,0.0,0
1586281911.5085607,238,3,-19.04296875,-45.8984375,-20.5078125,-14.6484375,0.0,0
1586281911.512467,238,3,-40.0390625,-37.59765625,-30.76171875,-18.5546875,0.0,0
1586281911.5163732,238,3,-35.64453125,-27.34375,-43.45703125,-39.0625,0.0,0
1586281911.5202794,238,3,-17.08984375,-27.34375,-49.8046875,-34.1796875,0.0,0
1586281911.5241857,238,3,-11.71875,-41.9921875,-46.38671875,-18.06640625,0.0,0
1586281911.528092,238,3,-10.25390625,-59.08203125,-39.55078125,-10.7421875,0.0,0
1586281911.5319982,238,3,-13.18359375,-48.828125,-27.83203125,-14.16015625,0.0,0
1586281911.5359044,238,3,-15.625,-31.73828125,-24.4140625,-14.6484375,0.0,0
1586281911.5398107,238,3,-17.08984375,-34.1796875,-29.78515625,-20.99609375,0.0,0
1586281911.543717,238,3,-13.18359375,-25.87890625,-35.64453125,-19.53125,0.0,0
1586281911.5476232,238,3,-9.765625,-20.99609375,-52.24609375,-13.18359375,0.0,0
1586281911.5515294,238,3,-14.6484375,-35.15625,-51.7578125,-15.13671875,0.0,0
1586281911.5554357,238,3,-17.578125,-40.52734375,-27.34375,-24.90234375,0.0,0
1586281911.559342,238,3,-8.7890625,-41.50390625,-16.11328125,-24.90234375,0.0,0
1586281911.5632482,238,3,2.9296875,-45.41015625,-22.94921875,-7.32421875,0.0,0
1586281911.5671544,238,3,3.41796875,-23.4375,-46.38671875,-1.953125,0.0,0
1586281911.5710607,238,3,-8.30078125,-16.6015625,-44.921875,-5.37109375,0.0,0
1586281911.574967,238,3,-18.06640625,-23.4375,-21.97265625,-11.23046875,0.0,0
1586281911.5788732,238,3,-19.04296875,-44.921875,-14.16015625,-3.90625,0.0,0
1586281911.5827794,238,3,-16.6015625,-60.05859375,-32.2265625,5.859375,0.0,0
1586281911.5866857,238,3,-10.7421875,-26.3671875,-39.55078125,8.7890625,0.0,0
1586281911.590592,238,3,-17.08984375,-20.01953125,-31.73828125,6.34765625,0.0,0
1586281911.5944982,238,3,-29.78515625,-20.01953125,-36.62109375,-8.30078125,0.0,0
1586281911.5984044,238,3,-31.25,-21.484375,-27.83203125,-9.765625,0.0,0
1586281911.6023107,238,3,-25.390625,-37.109375,-42.48046875,-11.23046875,0.0,0
1586281911.606217,238,3,-15.625,-31.25,-64.94140625,-13.671875,0.0,0
1586281911.6101232,238,3,-20.99609375,-20.5078125,-46.38671875,-18.06640625,0.0,0
1586281911.6140294,238,3,-25.390625,-33.69140625,-12.6953125,-20.01953125,0.0,0
1586281911.6179357,238,3,-21.484375,-34.66796875,-9.765625,-16.11328125,0.0,0
1586281911.621842,238,3,-19.04296875,-36.1328125,-47.36328125,-14.6484375,0.0,0
1586281911.6257482,238,3,-11.23046875,-41.9921875,-53.22265625,-15.625,0.0,0
1586281911.6296544,238,3,-5.37109375,-43.9453125,-28.80859375,-18.5546875,0.0,0
1586281911.6335607,238,3,-12.6953125,-32.71484375,-25.390625,-18.06640625,0.0,0
1586281911.637467,238,3,-13.18359375,-14.6484375,-30.2734375,-9.27734375,0.0,0
1586281911.6413732,238,3,-7.32421875,-13.18359375,-38.57421875,-8.30078125,0.0,0
1586281911.6452794,238,3,0.48828125,-22.94921875,-48.828125,-2.9296875,0.0,0
1586281911.6491857,238,3,0.9765625,-38.0859375,-54.19921875,-8.7890625,0.0,0
1586281911.653092,238,3,-18.5546875,-42.48046875,-41.015625,-29.78515625,0.0,0
1586281911.6569982,238,3,-20.99609375,-29.296875,-25.390625,-36.62109375,0.0,0
1586281911.6609044,238,3,-9.27734375,-25.87890625,-19.53125,-24.90234375,0.0,0
1586281911.6648107,238,3,-6.8359375,-32.71484375,-20.99609375,-13.671875,0.0,0
1586281911.668717,238,3,-13.18359375,-41.9921875,-23.92578125,-14.6484375,0.0,0
1586281911.6726232,238,3,-24.90234375,-30.76171875,-21.97265625,-17.08984375,0.0,0
1586281911.6765294,238,3,-26.85546875,-22.4609375,-28.3203125,-24.90234375,0.0,0
1586281911.6804357,238,3,-42.48046875,-42.48046875,-44.43359375,-31.25,0.0,0
1586281911.684342,238,3,-55.17578125,-60.05859375,-49.8046875,-31.73828125,0.0,0
1586281911.6882482,238,3,-56.640625,-41.9921875,-39.0625,-24.90234375,0.0,0
1586281911.6921544,238,3,-75.1953125,-33.203125,-33.203125,-43.9453125,0.0,0
1586281911.6960607,238,3,-85.9375,-33.69140625,-24.90234375,-65.4296875,0.0,0
1586281911.699967,238,3,-77.63671875,-38.57421875,-27.83203125,-68.359375,0.0,0
1586281911.7038732,238,3,-63.4765625,-42.96875,-41.015625,-59.5703125,0.0,0
1586281911.7077794,238,3,-60.05859375,-52.24609375,-40.0390625,-48.828125,0.0,0
1586281911.7116857,238,3,-59.08203125,-49.8046875,-28.3203125,-48.33984375,0.0,0
1586281911.715592,238,3,-52.734375,-33.203125,-21.97265625,-47.8515625,0.0,0
1586281911.7194982,238,3,-50.29296875,-38.57421875,-37.59765625,-47.8515625,0.0,0
1586281911.7234044,238,3,-36.1328125,-34.1796875,-33.203125,-36.1328125,0.0,0
1586281911.7273107,238,3,-20.5078125,-30.2734375,-23.4375,-23.92578125,0.0,0
1586281911.731217,238,3,-30.2734375,-51.7578125,-34.1796875,-17.578125,0.0,0
1586281911.7351232,238,3,-41.50390625,-56.15234375,-47.36328125,-31.25,0.0,0
1586281911.7390294,238,3,-35.15625,-32.71484375,-54.6875,-46.38671875,0.0,0
1586281911.7429357,238,3,-25.390625,-31.25,-43.45703125,-40.0390625,0.0,0
1586281911.746842,238,3,-19.53125,-47.8515625,-13.18359375,-21.484375,0.0,0
1586281911.7507482,238,3,-29.78515625,-45.41015625,-22.94921875,-14.16015625,0.0,0
1586281911.7546544,238,3,-36.62109375,-41.50390625,-43.9453125,-21.484375,0.0,0
1586281911.7585607,238,3,-29.296875,-39.0625,-35.64453125,-13.671875,0.0,0
1586281911.762467,238,3,-20.99609375,-35.64453125,-33.69140625,-8.30078125,0.0,0
1586281911.7663732,238,3,-10.7421875,-30.76171875,-24.90234375,-6.8359375,0.0,0
1586281911.7702794,238,3,-28.80859375,-36.1328125,-35.15625,-11.23046875,0.0,0
1586281911.7741857,238,3,-37.59765625,-36.62109375,-61.03515625,-17.08984375,0.0,0
1586281911.778092,238,3,-20.5078125,-31.73828125,-51.7578125,-18.06640625,0.0,0
1586281911.7819982,238,3,-11.71875,-38.0859375,-32.2265625,-21.97265625,0.0,0
1586281911.7859044,238,3,-14.6484375,-41.015625,-15.13671875,-18.06640625,0.0,0
1586281911.7898107,238,3,-20.01953125,-38.0859375,-12.20703125,-20.99609375,0.0,0
1586281911.793717,238,3,-31.73828125,-51.7578125,-28.3203125,-32.2265625,0.0,0
1586281911.7976232,238,3,-43.9453125,-54.6875,-31.25,-35.15625,0.0,0
1586281911.8015294,238,3,-33.203125,-44.921875,-24.90234375,-22.94921875,0.0,0
1586281911.8054357,238,3,-20.5078125,-47.36328125,-33.69140625,-20.99609375,0.0,0
1586281911.809342,238,3,-27.83203125,-36.62109375,-35.15625,-23.92578125,0.0,0
1586281911.8132482,238,3,-37.59765625,-25.87890625,-28.3203125,-39.55078125,0.0,0
1586281911.8171544,238,3,-36.1328125,-32.71484375,-41.015625,-42.96875,0.0,0
1586281911.8210607,238,3,-16.6015625,-32.71484375,-45.41015625,-31.25,0.0,0
1586281911.824967,238,3,-6.34765625,-36.1328125,-35.15625,-27.34375,0.0,0
1586281911.8288732,238,3,-19.04296875,-48.33984375,-49.8046875,-23.92578125,0.0,0
1586281911.8327794,238,3,-34.66796875,-45.8984375,-74.21875,-29.78515625,0.0,0
1586281911.8366857,238,3,-33.203125,-41.015625,-52.734375,-25.390625,0.0,0
1586281911.840592,238,3,-18.06640625,-25.87890625,-14.6484375,-14.6484375,0.0,0
1586281911.8444982,238,3,-8.30078125,-14.6484375,-18.06640625,-17.08984375,0.0,0
1586281911.8484044,238,3,-12.20703125,-35.64453125,-35.15625,-13.671875,0.0,0
1586281911.8523107,238,3,-19.53125,-51.7578125,-44.43359375,-21.484375,0.0,0
1586281911.856217,238,3,-36.62109375,-36.62109375,-55.6640625,-24.4140625,0.0,0
1586281911.8601232,238,3,-45.41015625,-35.64453125,-54.19921875,-22.94921875,0.0,0
1586281911.8640294,238,3,-12.6953125,-60.05859375,-31.25,-12.20703125,0.0,0
1586281911.8679357,238,3,3.41796875,-56.640625,-30.2734375,-11.71875,0.0,0
1586281911.871842,238,3,-15.13671875,-39.55078125,-43.45703125,-20.01953125,0.0,0
1586281911.8757482,238,3,-31.73828125,-32.2265625,-46.875,-23.4375,0.0,0
1586281911.8796544,238,3,-32.71484375,-26.85546875,-44.921875,-23.92578125,0.0,0
1586281911.8835607,238,3,-23.4375,-33.69140625,-44.43359375,-7.8125,0.0,0
1586281911.887467,238,3,-24.4140625,-32.71484375,-40.52734375,-7.8125,0.0,0
1586281911.8913732,238,3,-32.2265625,-41.9921875,-37.109375,-27.83203125,0.0,0
1586281911.8952794,238,3,-35.15625,-53.22265625,-40.52734375,-23.92578125,0.0,0
1586281911.8991857,238,3,-36.1328125,-51.26953125,-39.55078125,-22.94921875,0.0,0
1586281911.903092,238,3,-25.87890625,-44.43359375,-38.0859375,-19.04296875,0.0,0
1586281911.9069982,238,3,-14.6484375,-36.1328125,-37.59765625,-12.6953125,0.0,0
1586281911.9109044,238,3,-17.578125,-32.71484375,-38.57421875,-19.53125,0.0,0
1586281911.9148107,238,3,-33.69140625,-30.76171875,-35.15625,-26.3671875,0.0,0
1586281911.918717,238,3,-23.92578125,-37.59765625,-36.1328125,-20.01953125,0.0,0
1586281911.9226232,238,3,-4.8828125,-41.015625,-52.24609375,-19.53125,0.0,0
1586281911.9265294,238,3,-1.46484375,-34.66796875,-55.6640625,-12.6953125,0.0,0
1586281911.9304357,238,3,-7.8125,-38.57421875,-44.43359375,-0.9765625,0.0,0
1586281911.934342,238,3,-21.97265625,-37.109375,-49.31640625,-18.06640625,0.0,0
1586281911.9382482,238,3,-19.53125,-19.04296875,-59.08203125,-19.53125,0.0,0
1586281911.9421544,238,3,-12.6953125,-21.484375,-43.45703125,-12.6953125,0.0,0
1586281911.9460607,238,3,-11.23046875,-34.66796875,-26.85546875,-12.20703125,0.0,0
1586281911.949967,238,3,-19.04296875,-47.36328125,-32.2265625,-15.13671875,0.0,0
1586281911.9538732,238,3,-46.38671875,-45.8984375,-29.296875,-28.3203125,0.0,0
1586281911.9577794,238,3,-40.0390625,-35.64453125,-20.01953125,-22.94921875,0.0,0
1586281911.9616857,238,3,-10.25390625,-25.87890625,-26.85546875,-20.99609375,0.0,0
1586281911.965592,238,3,-5.859375,-19.04296875,-46.38671875,-18.5546875,0.0,0
1586281911.9694982,238,3,-22.4609375,-33.203125,-67.3828125,-21.484375,0.0,0
1586281911.9734044,238,3,-33.69140625,-44.921875,-55.6640625,-24.4140625,0.0,0
1586281911.9773107,238,3,-30.76171875,-54.19921875,-37.59765625,-23.92578125,0.0,0
1586281911.981217,238,3,-15.13671875,-42.96875,-39.55078125,-10.7421875,0.0,0
1586281911.9851232,238,3,-4.8828125,-35.64453125,-45.8984375,-6.8359375,0.0,0
1586281911.9890294,238,3,-13.671875,-32.2265625,-28.3203125,-11.23046875,0.0,0
1586281911.9929357,238,3,-27.34375,-38.57421875,-22.4609375,-16.11328125,0.0,0
1586281911.996842,238,3,-40.52734375,-54.6875,-33.203125,-29.78515625,0.0,0
1586281912.0007482,238,3,-36.62109375,-46.38671875,-20.01953125,-19.53125,0.0,0
1586281912.0046544,238,3,-22.94921875,-39.55078125,-14.6484375,-6.8359375,0.0,0
1586281912.0085607,238,3,-21.484375,-32.2265625,-20.99609375,-14.16015625,0.0,0
1586281912.012467,238,3,-16.11328125,-27.83203125,-31.73828125,-15.13671875,0.0,0
1586281912.0163732,238,3,-12.6953125,-49.8046875,-49.31640625,-12.6953125,0.0,0
1586281912.0202794,238,3,-6.34765625,-82.51953125,-63.96484375,-12.20703125,0.0,0
1586281912.0241857,238,3,3.41796875,-58.59375,-71.2890625,-11.23046875,0.0,0
1586281912.028092,238,3,8.30078125,-10.25390625,-57.6171875,-12.6953125,0.0,0
1586281912.0319982,238,3,11.23046875,-7.32421875,-40.0390625,-16.11328125,0.0,0
1586281912.0359044,238,3,-1.46484375,-15.625,-39.55078125,-29.296875,0.0,0
1586281912.0398107,238,3,-13.18359375,-12.20703125,-40.52734375,-36.1328125,0.0,0
1586281912.043717,238,3,-9.765625,-15.625,-40.0390625,-24.4140625,0.0,0
1586281912.0476232,238,3,-2.44140625,-13.671875,-36.1328125,-16.6015625,0.0,0
1586281912.0515294,238,3,-10.25390625,-23.4375,-26.85546875,-29.296875,0.0,0
1586281912.0554357,238,3,-21.484375,-34.1796875,-26.3671875,-41.50390625,0.0,0
1586281912.059342,238,3,-12.20703125,-31.73828125,-23.92578125,-33.203125,0.0,0
1586281912.0632482,238,3,-0.48828125,-25.87890625,-22.4609375,-8.7890625,0.0,0
1586281912.0671544,238,3,-7.32421875,-22.4609375,-31.73828125,-5.37109375,0.0,0
1586281912.0710607,238,3,-12.6953125,-20.99609375,-56.640625,-12.20703125,0.0,0
1586281912.074967,238,3,-20.01953125,-33.203125,-62.5,-9.27734375,0.0,0
1586281912.0788732,238,3,-25.87890625,-33.203125,-59.08203125,-19.53125,0.0,0
1586281912.0827794,238,3,-18.5546875,-20.5078125,-40.0390625,-24.4140625,0.0,0
1586281912.0866857,238,3,-20.99609375,-34.1796875,-21.97265625,-17.578125,0.0,0
1586281912.090592,238,3,-20.01953125,-49.31640625,-24.90234375,-13.18359375,0.0,0
1586281912.0944982,238,3,-23.92578125,-41.9921875,-36.1328125,-17.578125,0.0,0
1586281912.0984044,238,3,-24.90234375,-36.62109375,-34.66796875,-19.53125,0.0,0
1586281912.1023107,238,3,-1.46484375,-41.015625,-25.87890625,-15.625,0.0,0
1586281912.106217,238,3,5.859375,-37.59765625,-16.11328125,-6.8359375,0.0,0
1586281912.1101232,238,3,-4.39453125,-23.4375,-10.7421875,3.90625,0.0,0
1586281912.1140294,238,3,-14.6484375,-32.71484375,-49.8046875,-9.27734375,0.0,0
1586281912.1179357,238,3,-26.3671875,-43.45703125,-50.29296875,-21.484375,0.0,0
1586281912.121842,238,3,-15.625,-42.48046875,-39.0625,-12.6953125,0.0,0
1586281912.1257482,238,3,-6.8359375,-35.64453125,-62.98828125,-7.8125,0.0,0
1586281912.1296544,238,3,-27.34375,-26.3671875,-54.19921875,-15.13671875,0.0,0
1586281912.1335607,238,3,-38.0859375,-25.87890625,-20.5078125,-23.92578125,0.0,0
1586281912.137467,238,3,-30.76171875,-31.25,-14.16015625,-22.94921875,0.0,0
1586281912.1413732,238,3,-15.625,-33.203125,-25.390625,-16.11328125,0.0,0
1586281912.1452794,238,3,-6.8359375,-30.2734375,-25.87890625,-4.8828125,0.0,0
1586281912.1491857,238,3,-8.30078125,-24.90234375,-20.01953125,3.90625,0.0,0
1586281912.153092,238,3,-16.11328125,-43.45703125,-38.0859375,-1.953125,0.0,0
1586281912.1569982,238,3,-21.97265625,-49.8046875,-50.78125,-19.04296875,0.0,0
1586281912.1609044,238,3,-9.27734375,-21.484375,-58.59375,-21.97265625,0.0,0
1586281912.1648107,238,3,5.37109375,-18.5546875,-58.59375,-12.6953125,0.0,0
1586281912.168717,238,3,0.0,-31.25,-39.0625,-12.20703125,0.0,0
1586281912.1726232,238,3,-14.16015625,-32.2265625,-35.64453125,-16.6015625,0.0,0
1586281912.1765294,238,3,-15.625,-30.2734375,-31.25,-24.90234375,0.0,0
1586281912.1804357,238,3,-12.20703125,-33.69140625,-32.2265625,-21.97265625,0.0,0
1586281912.184342,238,3,-9.765625,-43.9453125,-38.0859375,-13.18359375,0.0,0
1586281912.1882482,238,3,-5.37109375,-42.48046875,-41.015625,-6.34765625,0.0,0
1586281912.1921544,238,3,-23.4375,-38.57421875,-38.0859375,0.0,0.0,0
1586281912.1960607,238,3,-20.5078125,-47.8515625,-38.57421875,-11.71875,0.0,0
1586281912.199967,238,3,-5.37109375,-46.875,-26.85546875,-23.4375,0.0,0
1586281912.2038732,238,3,-5.859375,-43.45703125,-23.92578125,-20.99609375,0.0,0
1586281912.2077794,238,3,-6.8359375,-37.109375,-45.41015625,-13.18359375,0.0,0
1586281912.2116857,238,3,-14.6484375,-33.203125,-47.36328125,-16.11328125,0.0,0
1586281912.215592,238,3,-27.83203125,-20.99609375,-33.203125,-25.390625,0.0,0
1586281912.2194982,238,3,-30.76171875,-28.80859375,-31.25,-33.69140625,0.0,0
1586281912.2234044,238,3,-26.3671875,-59.08203125,-37.109375,-27.83203125,0.0,0
1586281912.2273107,238,3,-21.97265625,-56.15234375,-42.96875,-20.99609375,0.0,0
1586281912.231217,238,3,-30.2734375,-37.59765625,-45.8984375,-29.78515625,0.0,0
1586281912.2351232,238,3,-38.57421875,-41.50390625,-35.64453125,-30.76171875,0.0,0
1586281912.2390294,238,3,-35.64453125,-41.015625,-33.69140625,-27.34375,0.0,0
1586281912.2429357,238,3,-27.34375,-31.73828125,-41.015625,-33.203125,0.0,0
1586281912.246842,238,3,-18.5546875,-37.109375,-26.85546875,-32.2265625,0.0,0
1586281912.2507482,238,3,-26.85546875,-41.015625,-29.296875,-28.3203125,0.0,0
1586281912.2546544,238,3,-33.69140625,-39.55078125,-25.390625,-36.62109375,0.0,0
1586281912.2585607,238,3,-12.6953125,-31.73828125,-33.69140625,-21.97265625,0.0,0
1586281912.262467,238,3,-1.46484375,-34.1796875,-54.19921875,-20.5078125,0.0,0
1586281912.2663732,238,3,1.46484375,-39.0625,-47.8515625,-26.85546875,0.0,0
1586281912.2702794,238,3,-9.765625,-34.1796875,-43.9453125,-18.5546875,0.0,0
1586281912.2741857,238,3,-28.80859375,-36.62109375,-31.25,-21.97265625,0.0,0
1586281912.278092,238,3,-24.90234375,-35.64453125,-32.71484375,-33.69140625,0.0,0
1586281912.2819982,238,3,-13.671875,-43.9453125,-41.50390625,-33.203125,0.0,0
1586281912.2859044,238,3,-10.7421875,-42.48046875,-43.45703125,-29.78515625,0.0,0
1586281912.2898107,238,3,-20.5078125,-27.34375,-47.36328125,-33.69140625,0.0,0
1586281912.293717,238,3,-37.109375,-41.50390625,-60.05859375,-36.62109375,0.0,0
1586281912.2976232,238,3,-44.921875,-52.24609375,-64.94140625,-33.203125,0.0,0
1586281912.3015294,238,3,-27.83203125,-42.48046875,-41.9921875,-19.53125,0.0,0
1586281912.3054357,238,3,-15.625,-46.875,-48.828125,-6.34765625,0.0,0
1586281912.309342,238,3,-20.01953125,-43.45703125,-63.4765625,-16.11328125,0.0,0
1586281912.3132482,238,3,-17.08984375,-33.203125,-52.734375,-28.80859375,0.0,0
1586281912.3171544,238,3,-22.94921875,-23.92578125,-33.203125,-24.90234375,0.0,0
1586281912.3210607,238,3,-23.92578125,-19.04296875,-12.20703125,-18.06640625,0.0,0
1586281912.324967,238,3,-15.13671875,-32.71484375,-25.390625,-15.625,0.0,0
1586281912.3288732,238,3,-13.18359375,-41.015625,-42.48046875,-8.7890625,0.0,0
1586281912.3327794,238,3,-21.97265625,-40.0390625,-36.62109375,-10.7421875,0.0,0
1586281912.3366857,238,3,-31.73828125,-45.8984375,-30.76171875,-19.04296875,0.0,0
1586281912.340592,238,3,-28.80859375,-50.29296875,-45.41015625,-15.13671875,0.0,0
1586281912.3444982,238,3,-25.87890625,-58.10546875,-57.6171875,-17.578125,0.0,0
1586281912.3484044,238,3,-32.71484375,-58.10546875,-37.109375,-17.08984375,0.0,0
1586281912.3523107,238,3,-46.875,-32.2265625,-26.3671875,-16.11328125,0.0,0
1586281912.356217,238,3,-43.9453125,-16.11328125,-38.0859375,-29.78515625,0.0,0
1586281912.3601232,238,3,-28.80859375,-29.296875,-35.64453125,-32.71484375,0.0,0
1586281912.3640294,238,3,-13.18359375,-42.96875,-30.2734375,-22.94921875,0.0,0
1586281912.3679357,238,3,-9.27734375,-55.17578125,-34.66796875,-21.484375,0.0,0
1586281912.371842,238,3,-18.5546875,-43.9453125,-37.109375,-20.01953125,0.0,0
1586281912.3757482,238,3,-18.5546875,-27.83203125,-42.96875,-14.6484375,0.0,0
1586281912.3796544,238,3,-10.25390625,-24.4140625,-36.62109375,-20.99609375,0.0,0
1586281912.3835607,238,3,-3.41796875,-33.203125,-32.71484375,-16.11328125,0.0,0
1586281912.387467,238,3,-3.41796875,-44.921875,-37.59765625,-14.6484375,0.0,0
1586281912.3913732,238,3,-8.30078125,-37.59765625,-38.57421875,-21.484375,0.0,0
1586281912.3952794,238,3,-21.97265625,-43.9453125,-41.50390625,-20.5078125,0.0,0
1586281912.3991857,238,3,-22.4609375,-55.6640625,-58.10546875,-21.97265625,0.0,0
1586281912.403092,238,3,-8.7890625,-27.83203125,-58.10546875,-14.16015625,0.0,0
1586281912.4069982,238,3,-4.39453125,-24.4140625,-33.203125,-1.953125,0.0,0
1586281912.4109044,238,3,-12.6953125,-39.0625,-25.87890625,-3.41796875,0.0,0
1586281912.4148107,238,3,-21.97265625,-32.2265625,-45.8984375,-16.6015625,0.0,0
1586281912.418717,238,3,-24.90234375,-41.015625,-29.78515625,-19.53125,0.0,0
1586281912.4226232,238,3,-18.06640625,-31.73828125,-12.20703125,-15.625,0.0,0
1586281912.4265294,238,3,-9.27734375,-13.671875,-25.390625,-19.04296875,0.0,0
1586281912.4304357,238,3,-12.20703125,-19.53125,-10.7421875,-11.71875,0.0,0
1586281912.434342,238,3,-27.34375,-27.34375,-24.4140625,-15.625,0.0,0
1586281912.4382482,238,3,-27.34375,-28.80859375,-42.48046875,-15.13671875,0.0,0
1586281912.4421544,238,3,-14.16015625,-37.59765625,-38.57421875,-11.71875,0.0,0
1586281912.4460607,238,3,-10.25390625,-66.40625,-39.0625,-17.578125,0.0,0
1586281912.449967,238,3,-18.06640625,-62.01171875,-46.38671875,-19.04296875,0.0,0
1586281912.4538732,238,3,-30.2734375,-30.76171875,-60.546875,-26.3671875,0.0,0
1586281912.4577794,238,3,-31.25,-21.97265625,-45.41015625,-29.296875,0.0,0
1586281912.4616857,238,3,-17.08984375,-25.87890625,-22.4609375,-22.94921875,0.0,0
1586281912.465592,238,3,-1.953125,-24.90234375,-35.64453125,-15.625,0.0,0
1586281912.4694982,238,3,-10.7421875,-33.69140625,-43.9453125,-19.53125,0.0,0
1586281912.4734044,238,3,-26.3671875,-45.8984375,-35.15625,-28.3203125,0.0,0
1586281912.4773107,238,3,-30.76171875,-35.64453125,-41.9921875,-28.3203125,0.0,0
1586281912.481217,238,3,-19.04296875,-27.34375,-32.2265625,-18.06640625,0.0,0
1586281912.4851232,238,3,-12.20703125,-26.85546875,-28.3203125,-15.625,0.0,0
1586281912.4890294,238,3,-19.04296875,-37.59765625,-34.1796875,-23.4375,0.0,0
1586281912.4929357,238,3,-24.90234375,-46.875,-32.71484375,-31.73828125,0.0,0
1586281912.496842,238,3,-34.66796875,-38.0859375,-45.41015625,-33.203125,0.0,0
1586281912.5007482,238,3,-37.109375,-28.80859375,-36.62109375,-27.34375,0.0,0
1586281912.5046544,238,3,-13.671875,-28.3203125,-36.62109375,-15.13671875,0.0,0
1586281912.5085607,238,3,-3.90625,-36.62109375,-51.26953125,-13.671875,0.0,0
1586281912.512467,238,3,-22.4609375,-38.0859375,-56.640625,-20.99609375,0.0,0
1586281912.5163732,238,3,-22.94921875,-31.73828125,-47.36328125,-30.76171875,0.0,0
1586281912.5202794,238,3,-9.27734375,-28.3203125,-25.87890625,-18.5546875,0.0,0
1586281912.5241857,238,3,-6.8359375,-35.15625,-16.6015625,-0.9765625,0.0,0
1586281912.528092,238,3,1.953125,-39.55078125,-34.1796875,-0.48828125,0.0,0
1586281912.5319982,238,3,-9.27734375,-36.62109375,-59.08203125,-14.16015625,0.0,0
1586281912.5359044,238,3,-19.53125,-32.71484375,-47.8515625,-21.484375,0.0,0
1586281912.5398107,238,3,-7.8125,-39.55078125,-23.92578125,-11.23046875,0.0,0
1586281912.543717,238,3,-0.9765625,-38.0859375,-20.5078125,7.32421875,0.0,0
1586281912.5476232,238,3,-5.37109375,-20.5078125,-21.97265625,7.8125,0.0,0
1586281912.5515294,238,3,-13.18359375,-17.578125,-32.71484375,-6.8359375,0.0,0
1586281912.5554357,238,3,-19.04296875,-34.1796875,-50.78125,-13.18359375,0.0,0
1586281912.559342,238,3,-16.11328125,-37.109375,-32.2265625,-5.859375,0.0,0
1586281912.5632482,238,3,-3.41796875,-37.59765625,-26.3671875,3.41796875,0.0,0
1586281912.5671544,238,3,-4.39453125,-44.921875,-28.80859375,1.46484375,0.0,0
1586281912.5710607,238,3,-18.5546875,-25.87890625,-32.71484375,-6.34765625,0.0,0
1586281912.574967,238,3,-26.3671875,-17.578125,-35.15625,-16.6015625,0.0,0
1586281912.5788732,238,3,-23.92578125,-32.71484375,-36.62109375,-32.2265625,0.0,0
1586281912.5827794,238,3,-17.08984375,-33.203125,-45.8984375,-27.83203125,0.0,0
1586281912.5866857,238,3,-10.7421875,-26.3671875,-39.55078125,-15.13671875,0.0,0
1586281912.590592,238,3,-9.27734375,-18.5546875,-36.1328125,-17.578125,0.0,0
1586281912.5944982,238,3,-24.90234375,-26.3671875,-29.78515625,-31.25,0.0,0
1586281912.5984044,238,3,-22.94921875,-38.0859375,-21.484375,-26.85546875,0.0,0
1586281912.6023107,238,3,-15.13671875,-33.69140625,-44.921875,-21.97265625,0.0,0
1586281912.606217,238,3,-22.4609375,-40.52734375,-72.75390625,-26.85546875,0.0,0
1586281912.6101232,238,3,-21.97265625,-43.45703125,-58.10546875,-27.34375,0.0,0
1586281912.6140294,238,3,-20.99609375,-38.0859375,-22.94921875,-24.4140625,0.0,0
1586281912.6179357,238,3,-29.78515625,-33.203125,-19.04296875,-23.92578125,0.0,0
1586281912.621842,238,3,-26.85546875,-27.34375,-33.69140625,-22.94921875,0.0,0
1586281912.6257482,238,3,-10.7421875,-25.390625,-30.2734375,-8.30078125,0.0,0
1586281912.6296544,238,3,-8.30078125,-12.20703125,-14.16015625,9.765625,0.0,0
1586281912.6335607,238,3,-19.53125,-41.9921875,-8.7890625,3.90625,0.0,0
1586281912.637467,238,3,-23.92578125,-54.6875,-43.45703125,-20.99609375,0.0,0
1586281912.6413732,238,3,-17.08984375,-20.99609375,-56.15234375,-22.4609375,0.0,0
1586281912.6452794,238,3,-11.71875,-15.625,-39.0625,-11.71875,0.0,0
1586281912.6491857,238,3,-19.04296875,-22.4609375,-34.66796875,-18.5546875,0.0,0
1586281912.653092,238,3,-33.203125,-32.2265625,-32.71484375,-26.3671875,0.0,0
1586281912.6569982,238,3,-31.25,-47.36328125,-44.43359375,-26.3671875,0.0,0
1586281912.6609044,238,3,-20.5078125,-37.59765625,-54.6875,-17.08984375,0.0,0
1586281912.6648107,238,3,-17.08984375,-30.76171875,-38.0859375,-13.18359375,0.0,0
1586281912.668717,238,3,-22.4609375,-47.36328125,-31.73828125,-16.11328125,0.0,0
1586281912.6726232,238,3,-20.99609375,-40.0390625,-25.87890625,-19.04296875,0.0,0
1586281912.6765294,238,3,-28.80859375,-22.4609375,-22.94921875,-33.203125,0.0,0
1586281912.6804357,238,3,-30.2734375,-33.203125,-37.109375,-36.1328125,0.0,0
1586281912.684342,238,3,-13.18359375,-37.109375,-43.9453125,-24.90234375,0.0,0
1586281912.6882482,238,3,-1.46484375,-28.3203125,-38.57421875,-10.25390625,0.0,0
1586281912.6921544,238,3,-6.34765625,-29.296875,-23.4375,-8.7890625,0.0,0
1586281912.6960607,238,3,-23.4375,-23.4375,-3.41796875,-18.5546875,0.0,0
1586281912.699967,238,3,-20.5078125,-16.6015625,-29.78515625,-24.90234375,0.0,0
1586281912.7038732,238,3,-2.9296875,-23.92578125,-50.78125,-21.97265625,0.0,0
1586281912.7077794,238,3,-9.27734375,-46.875,-50.78125,-15.13671875,0.0,0
1586281912.7116857,238,3,-19.04296875,-37.59765625,-44.43359375,-10.25390625,0.0,0
1586281912.715592,238,3,-25.390625,-35.15625,-29.296875,-8.7890625,0.0,0
1586281912.7194982,238,3,-25.87890625,-54.6875,-28.80859375,-13.18359375,0.0,0
1586281912.7234044,238,3,-8.7890625,-27.83203125,-26.3671875,-10.7421875,0.0,0
1586281912.7273107,238,3,-5.859375,-21.484375,-33.69140625,-10.7421875,0.0,0
1586281912.731217,238,3,-12.6953125,-35.15625,-30.76171875,-14.6484375,0.0,0
1586281912.7351232,238,3,-19.53125,-34.66796875,-28.3203125,-14.16015625,0.0,0
1586281912.7390294,238,3,-24.4140625,-39.0625,-39.0625,-18.5546875,0.0,0
1586281912.7429357,238,3,-21.484375,-33.69140625,-36.1328125,-19.04296875,0.0,0
1586281912.746842,238,3,-28.3203125,-43.9453125,-35.64453125,-8.30078125,0.0,0
1586281912.7507482,238,3,-34.66796875,-48.33984375,-37.109375,-16.11328125,0.0,0
1586281912.7546544,238,3,-25.87890625,-36.62109375,-29.296875,-22.4609375,0.0,0
1586281912.7585607,238,3,-25.87890625,-40.0390625,-31.25,-20.99609375,0.0,0
1586281912.762467,238,3,-33.69140625,-47.36328125,-33.203125,-24.4140625,0.0,0
1586281912.7663732,238,3,-34.1796875,-58.10546875,-38.57421875,-26.3671875,0.0,0
1586281912.7702794,238,3,-28.80859375,-65.4296875,-39.0625,-16.11328125,0.0,0
1586281912.7741857,238,3,-37.109375,-42.96875,-17.578125,-22.4609375,0.0,0
1586281912.778092,238,3,-53.22265625,-27.34375,-24.4140625,-39.55078125,0.0,0
1586281912.7819982,238,3,-40.52734375,-31.25,-64.453125,-39.55078125,0.0,0
1586281912.7859044,238,3,-31.73828125,-38.0859375,-67.3828125,-37.59765625,0.0,0
1586281912.7898107,238,3,-33.203125,-42.96875,-53.7109375,-32.2265625,0.0,0
1586281912.793717,238,3,-31.73828125,-34.1796875,-56.15234375,-32.2265625,0.0,0
1586281912.7976232,238,3,-23.4375,-19.53125,-52.734375,-41.015625,0.0,0
1586281912.8015294,238,3,-14.16015625,-31.73828125,-54.19921875,-41.50390625,0.0,0
1586281912.8054357,238,3,-7.32421875,-34.66796875,-45.41015625,-27.83203125,0.0,0
1586281912.809342,238,3,-6.8359375,-31.73828125,-33.69140625,-27.34375,0.0,0
1586281912.8132482,238,3,-14.6484375,-37.109375,-37.109375,-25.390625,0.0,0
1586281912.8171544,238,3,-25.87890625,-44.43359375,-40.0390625,-24.4140625,0.0,0
1586281912.8210607,238,3,-24.4140625,-45.8984375,-41.015625,-27.83203125,0.0,0
1586281912.824967,238,3,-14.16015625,-36.1328125,-52.734375,-16.6015625,0.0,0
1586281912.8288732,238,3,-8.30078125,-39.0625,-33.203125,-9.765625,0.0,0
1586281912.8327794,238,3,-20.5078125,-51.7578125,-31.73828125,-26.3671875,0.0,0
1586281912.8366857,238,3,-30.76171875,-41.015625,-29.296875,-43.45703125,0.0,0
1586281912.840592,238,3,-24.4140625,-39.0625,-17.08984375,-40.0390625,0.0,0
1586281912.8444982,238,3,-17.578125,-47.36328125,-21.97265625,-25.390625,0.0,0
1586281912.8484044,238,3,-18.5546875,-42.48046875,-34.1796875,-27.34375,0.0,0
1586281912.8523107,238,3,-25.390625,-32.2265625,-53.22265625,-24.90234375,0.0,0
1586281912.856217,238,3,-24.90234375,-30.76171875,-41.50390625,-17.578125,0.0,0
1586281912.8601232,238,3,-16.11328125,-53.22265625,-20.5078125,-12.6953125,0.0,0
1586281912.8640294,238,3,-3.90625,-42.48046875,-27.34375,1.46484375,0.0,0
1586281912.8679357,238,3,-5.859375,-13.671875,-42.48046875,2.9296875,0.0,0
1586281912.871842,238,3,-13.18359375,-19.53125,-45.41015625,-8.7890625,0.0,0
1586281912.8757482,238,3,-17.578125,-38.57421875,-41.9921875,-12.20703125,0.0,0
1586281912.8796544,238,3,-18.06640625,-39.0625,-23.4375,-11.23046875,0.0,0
1586281912.8835607,238,3,-23.4375,-40.0390625,-15.13671875,-10.7421875,0.0,0
1586281912.887467,238,3,-31.25,-39.55078125,-13.18359375,-1.46484375,0.0,0
1586281912.8913732,238,3,-41.015625,-41.015625,-22.94921875,-3.41796875,0.0,0
1586281912.8952794,238,3,-52.734375,-52.24609375,-42.96875,-21.484375,0.0,0
1586281912.8991857,238,3,-54.6875,-66.40625,-47.8515625,-25.87890625,0.0,0
1586281912.903092,238,3,-27.83203125,-54.19921875,-34.1796875,-7.8125,0.0,0
1586281912.9069982,238,3,-14.16015625,-23.92578125,-28.3203125,-6.34765625,0.0,0
1586281912.9109044,238,3,-15.13671875,-16.11328125,-32.2265625,-13.18359375,0.0,0
1586281912.9148107,238,3,-15.625,-25.390625,-36.1328125,-11.71875,0.0,0
1586281912.918717,238,3,-10.25390625,-39.55078125,-34.1796875,-16.6015625,0.0,0
1586281912.9226232,238,3,-1.46484375,-30.2734375,-31.25,-24.90234375,0.0,0
1586281912.9265294,238,3,-6.34765625,-28.3203125,-47.36328125,-12.6953125,0.0,0
1586281912.9304357,239,2,-6.8359375,-40.0390625,-52.734375,-11.23046875,0.0,0
1586281912.934342,239,2,-7.32421875,-53.7109375,-40.52734375,-24.90234375,0.0,0
1586281912.9382482,239,2,-17.08984375,-55.6640625,-36.62109375,-32.71484375,0.0,0
1586281912.9421544,239,2,-21.97265625,-45.8984375,-43.9453125,-26.85546875,0.0,0
1586281912.9460607,239,2,-15.13671875,-19.53125,-36.62109375,-9.765625,0.0,0
1586281912.949967,239,2,-20.5078125,-11.23046875,-17.578125,-11.71875,0.0,0
1586281912.9538732,239,2,-36.62109375,-41.50390625,-22.4609375,-21.484375,0.0,0
1586281912.9577794,239,2,-40.52734375,-49.31640625,-45.41015625,-23.92578125,0.0,0
1586281912.9616857,239,2,-27.83203125,-25.87890625,-59.08203125,-20.99609375,0.0,0
1586281912.965592,239,2,-17.08984375,-19.04296875,-50.29296875,-16.11328125,0.0,0
1586281912.9694982,239,2,-23.92578125,-19.04296875,-40.0390625,-18.06640625,0.0,0
1586281912.9734044,239,2,-23.92578125,-35.15625,-37.109375,-21.484375,0.0,0
1586281912.9773107,239,2,-23.92578125,-53.22265625,-46.38671875,-19.53125,0.0,0
1586281912.981217,239,2,-26.3671875,-41.9921875,-45.8984375,-15.625,0.0,0
1586281912.9851232,239,2,-20.99609375,-43.9453125,-33.203125,-4.39453125,0.0,0
1586281912.9890294,239,2,-28.80859375,-60.546875,-24.4140625,-1.46484375,0.0,0
1586281912.9929357,239,2,-41.9921875,-55.6640625,-7.8125,-15.625,0.0,0
1586281912.996842,239,2,-52.24609375,-41.50390625,-19.04296875,-25.390625,0.0,0
1586281913.0007482,239,2,-42.96875,-36.62109375,-52.24609375,-28.80859375,0.0,0
1586281913.0046544,239,2,-21.97265625,-43.45703125,-44.43359375,-23.4375,0.0,0
1586281913.0085607,239,2,-20.5078125,-45.8984375,-22.94921875,-7.32421875,0.0,0
1586281913.012467,239,2,-27.83203125,-30.2734375,-36.62109375,-19.53125,0.0,0
1586281913.0163732,239,2,-26.85546875,-30.76171875,-44.43359375,-29.78515625,0.0,0
1586281913.0202794,239,2,-16.6015625,-43.9453125,-37.109375,-23.92578125,0.0,0
1586281913.0241857,239,2,-3.90625,-46.875,-41.015625,-17.578125,0.0,0
1586281913.028092,239,2,0.9765625,-28.3203125,-42.48046875,-3.90625,0.0,0
1586281913.0319982,239,2,-16.11328125,-11.71875,-35.64453125,-16.11328125,0.0,0
1586281913.0359044,239,2,-27.34375,-28.80859375,-27.83203125,-35.64453125,0.0,0
1586281913.0398107,239,2,-20.01953125,-37.109375,-23.4375,-36.1328125,0.0,0
1586281913.043717,239,2,-12.20703125,-35.15625,-29.296875,-17.08984375,0.0,0
1586281913.0476232,239,2,-11.23046875,-36.62109375,-35.15625,-13.671875,0.0,0
1586281913.0515294,239,2,-19.53125,-40.52734375,-23.4375,-28.3203125,0.0,0
1586281913.0554357,239,2,-25.390625,-62.98828125,-23.92578125,-22.4609375,0.0,0
1586281913.059342,239,2,-21.97265625,-49.31640625,-30.2734375,-31.73828125,0.0,0
1586281913.0632482,239,2,-3.90625,-13.18359375,-17.578125,-21.484375,0.0,0
1586281913.0671544,239,2,5.37109375,-20.01953125,-19.53125,0.0,0.0,0
1586281913.0710607,239,2,-2.44140625,-25.87890625,-54.19921875,-13.18359375,0.0,0
1586281913.074967,239,2,-13.671875,-23.4375,-64.94140625,-26.3671875,0.0,0
1586281913.0788732,239,2,-21.484375,-24.4140625,-37.59765625,-36.1328125,0.0,0
1586281913.0827794,239,2,-11.23046875,-24.4140625,-27.34375,-31.73828125,0.0,0
1586281913.0866857,239,2,-3.41796875,-33.69140625,-30.2734375,-16.6015625,0.0,0
1586281913.090592,239,2,-13.18359375,-39.0625,-43.9453125,-18.5546875,0.0,0
1586281913.0944982,239,2,-24.90234375,-35.64453125,-65.91796875,-26.3671875,0.0,0
1586281913.0984044,239,2,-26.3671875,-29.296875,-53.22265625,-16.6015625,0.0,0
1586281913.1023107,239,2,-13.18359375,-27.83203125,-25.390625,-7.8125,0.0,0
1586281913.106217,239,2,1.46484375,-37.59765625,-2.9296875,2.44140625,0.0,0
1586281913.1101232,239,2,-9.27734375,-55.17578125,2.9296875,1.46484375,0.0,0
1586281913.1140294,239,2,-28.3203125,-55.17578125,-21.97265625,-6.8359375,0.0,0
1586281913.1179357,239,2,-35.15625,-41.50390625,-36.1328125,-9.765625,0.0,0
1586281913.121842,239,2,-29.78515625,-34.66796875,-23.4375,-8.7890625,0.0,0
1586281913.1257482,239,2,-24.4140625,-25.87890625,-23.92578125,-8.30078125,0.0,0
1586281913.1296544,239,2,-31.73828125,-29.78515625,-47.8515625,-9.765625,0.0,0
1586281913.1335607,239,2,-35.15625,-33.203125,-44.921875,-12.20703125,0.0,0
1586281913.137467,239,2,-30.2734375,-41.015625,-34.1796875,-16.11328125,0.0,0
1586281913.1413732,239,2,-23.4375,-43.9453125,-39.0625,-16.11328125,0.0,0
1586281913.1452794,239,2,-12.6953125,-49.8046875,-44.921875,-7.8125,0.0,0
1586281913.1491857,239,2,-9.765625,-41.50390625,-42.96875,0.0,0.0,0
1586281913.153092,239,2,-25.87890625,-56.640625,-33.203125,-8.30078125,0.0,0
1586281913.1569982,239,2,-26.3671875,-55.6640625,-39.55078125,-17.08984375,0.0,0
1586281913.1609044,239,2,-11.23046875,-26.85546875,-37.59765625,-9.765625,0.0,0
1586281913.1648107,239,2,-1.46484375,-21.97265625,-24.4140625,4.39453125,0.0,0
1586281913.168717,239,2,-3.90625,-33.69140625,-25.87890625,7.8125,0.0,0
1586281913.1726232,239,2,-11.71875,-38.0859375,-44.43359375,0.48828125,0.0,0
1586281913.1765294,239,2,-14.16015625,-42.48046875,-42.96875,-16.11328125,0.0,0
1586281913.1804357,239,2,-1.46484375,-41.015625,-43.9453125,-19.04296875,0.0,0
1586281913.184342,239,2,7.8125,-30.2734375,-47.8515625,-15.13671875,0.0,0
1586281913.1882482,239,2,-8.30078125,-32.71484375,-33.203125,-11.71875,0.0,0
1586281913.1921544,239,2,-20.99609375,-28.80859375,-38.57421875,-14.6484375,0.0,0
1586281913.1960607,239,2,-21.97265625,-33.69140625,-42.48046875,-27.83203125,0.0,0
1586281913.199967,239,2,-20.99609375,-48.33984375,-44.43359375,-30.2734375,0.0,0
1586281913.2038732,239,2,-14.6484375,-39.0625,-41.015625,-28.3203125,0.0,0
1586281913.2077794,239,2,-5.859375,-24.90234375,-34.1796875,-17.08984375,0.0,0
1586281913.2116857,239,2,-14.16015625,-39.0625,-36.62109375,-17.578125,0.0,0
1586281913.215592,239,2,-30.76171875,-50.78125,-38.0859375,-32.2265625,0.0,0
1586281913.2194982,239,2,-26.3671875,-44.921875,-37.109375,-26.3671875,0.0,0
1586281913.2234044,239,2,-17.08984375,-36.1328125,-42.96875,-17.578125,0.0,0
1586281913.2273107,239,2,-19.04296875,-32.2265625,-36.1328125,-6.34765625,0.0,0
1586281913.231217,239,2,-17.08984375,-39.55078125,-28.80859375,-0.48828125,0.0,0
1586281913.2351232,239,2,-27.83203125,-52.734375,-27.83203125,-17.578125,0.0,0
1586281913.2390294,239,2,-38.0859375,-38.57421875,-33.203125,-24.90234375,0.0,0
1586281913.2429357,239,2,-31.73828125,-25.87890625,-47.36328125,-28.3203125,0.0,0
1586281913.246842,239,2,-28.3203125,-33.203125,-41.015625,-32.2265625,0.0,0
1586281913.2507482,239,2,-28.3203125,-47.36328125,-25.390625,-30.2734375,0.0,0
1586281913.2546544,239,2,-25.390625,-37.59765625,-28.3203125,-38.57421875,0.0,0
1586281913.2585607,239,2,-22.4609375,-47.36328125,-48.33984375,-35.64453125,0.0,0
1586281913.262467,239,2,-15.625,-52.24609375,-37.59765625,-23.92578125,0.0,0
1586281913.2663732,239,2,-12.20703125,-14.16015625,-38.0859375,-27.83203125,0.0,0
1586281913.2702794,239,2,-22.94921875,-19.53125,-46.875,-25.390625,0.0,0
1586281913.2741857,239,2,-24.4140625,-46.38671875,-34.66796875,-22.4609375,0.0,0
1586281913.278092,239,2,-20.5078125,-49.31640625,-42.96875,-26.3671875,0.0,0
1586281913.2819982,239,2,-22.4609375,-42.96875,-45.8984375,-25.87890625,0.0,0
1586281913.2859044,239,2,-14.6484375,-25.87890625,-43.9453125,-30.2734375,0.0,0
1586281913.2898107,239,2,-19.53125,-21.97265625,-49.31640625,-22.94921875,0.0,0
1586281913.293717,239,2,-20.5078125,-23.92578125,-18.5546875,-12.6953125,0.0,0
1586281913.2976232,239,2,-20.01953125,-18.5546875,-5.859375,-19.53125,0.0,0
1586281913.3015294,239,2,-15.625,-19.04296875,-20.5078125,-13.671875,0.0,0
1586281913.3054357,239,2,-9.27734375,-30.76171875,-7.8125,3.90625,0.0,0
1586281913.309342,239,2,-17.08984375,-37.59765625,-16.6015625,8.7890625,0.0,0
1586281913.3132482,239,2,-21.484375,-33.69140625,-34.66796875,-8.7890625,0.0,0
1586281913.3171544,239,2,-27.83203125,-41.9921875,-41.50390625,-26.85546875,0.0,0
1586281913.3210607,239,2,-28.80859375,-35.64453125,-58.10546875,-25.390625,0.0,0
1586281913.324967,239,2,-16.11328125,-27.83203125,-56.15234375,-16.11328125,0.0,0
1586281913.3288732,239,2,-17.578125,-31.73828125,-40.0390625,-11.23046875,0.0,0
1586281913.3327794,239,2,-17.08984375,-27.83203125,-25.87890625,-18.06640625,0.0,0
1586281913.3366857,239,2,-14.16015625,-30.2734375,-12.20703125,-13.18359375,0.0,0
1586281913.340592,239,2,-13.18359375,-35.15625,-9.765625,-6.34765625,0.0,0
1586281913.3444982,239,2,-12.20703125,-42.96875,-34.66796875,-13.671875,0.0,0
1586281913.3484044,239,2,-15.13671875,-42.48046875,-45.8984375,-17.08984375,0.0,0
1586281913.3523107,239,2,-18.06640625,-33.203125,-40.52734375,-23.92578125,0.0,0
1586281913.356217,239,2,-20.5078125,-36.62109375,-37.59765625,-26.85546875,0.0,0
1586281913.3601232,239,2,-20.01953125,-45.8984375,-32.71484375,-14.6484375,0.0,0
1586281913.3640294,239,2,-16.6015625,-34.1796875,-28.3203125,0.9765625,0.0,0
1586281913.3679357,239,2,-15.625,-18.06640625,-24.90234375,-0.9765625,0.0,0
1586281913.371842,239,2,-23.92578125,-24.90234375,-29.296875,-15.625,0.0,0
1586281913.3757482,239,2,-27.83203125,-30.2734375,-18.06640625,-19.53125,0.0,0
1586281913.3796544,239,2,-21.484375,-31.25,-20.99609375,-12.6953125,0.0,0
1586281913.3835607,239,2,-8.7890625,-50.29296875,-32.71484375,6.8359375,0.0,0
1586281913.387467,239,2,-2.9296875,-57.6171875,-36.1328125,4.8828125,0.0,0
1586281913.3913732,239,2,-12.20703125,-44.43359375,-48.828125,-20.5078125,0.0,0
1586281913.3952794,239,2,-15.625,-48.828125,-48.33984375,-24.4140625,0.0,0
1586281913.3991857,239,2,-14.6484375,-49.31640625,-42.96875,-24.90234375,0.0,0
1586281913.403092,239,2,-3.41796875,-33.69140625,-33.69140625,-16.11328125,0.0,0
1586281913.4069982,239,2,9.765625,-23.4375,-8.30078125,-0.9765625,0.0,0
1586281913.4109044,239,2,2.44140625,-23.4375,-1.953125,-13.18359375,0.0,0
1586281913.4148107,239,2,-7.8125,-32.71484375,-19.04296875,-28.80859375,0.0,0
1586281913.418717,239,2,-13.671875,-28.3203125,-28.80859375,-23.92578125,0.0,0
1586281913.4226232,239,2,-3.90625,-27.83203125,-25.87890625,-13.18359375,0.0,0
1586281913.4265294,239,2,3.90625,-19.53125,-46.875,-3.41796875,0.0,0
1586281913.4304357,239,2,-13.18359375,-15.625,-46.875,-2.44140625,0.0,0
1586281913.434342,239,2,-36.62109375,-35.15625,-35.64453125,-35.64453125,0.0,0
1586281913.4382482,239,2,-37.59765625,-37.109375,-38.0859375,-43.45703125,0.0,0
1586281913.4421544,239,2,-24.4140625,-39.55078125,-37.59765625,-24.90234375,0.0,0
1586281913.4460607,239,2,-17.578125,-44.43359375,-18.06640625,-10.7421875,0.0,0
1586281913.449967,239,2,-22.94921875,-43.45703125,-22.4609375,-9.765625,0.0,0
1586281913.4538732,239,2,-39.0625,-46.875,-29.78515625,-17.578125,0.0,0
1586281913.4577794,239,2,-34.66796875,-36.62109375,-29.296875,-19.04296875,0.0,0
1586281913.4616857,239,2,-22.4609375,-38.57421875,-49.31640625,-15.13671875,0.0,0
1586281913.465592,239,2,-21.97265625,-37.59765625,-38.57421875,-11.23046875,0.0,0
1586281913.4694982,239,2,-21.97265625,-33.203125,-32.2265625,-10.7421875,0.0,0
1586281913.4734044,239,2,-23.4375,-27.34375,-37.109375,-15.625,0.0,0
1586281913.4773107,239,2,-33.203125,-34.66796875,-31.25,-33.69140625,0.0,0
1586281913.481217,239,2,-20.99609375,-36.1328125,-23.92578125,-31.25,0.0,0
1586281913.4851232,239,2,-12.20703125,-32.2265625,-23.92578125,-15.13671875,0.0,0
1586281913.4890294,239,2,-22.4609375,-48.33984375,-49.31640625,-29.78515625,0.0,0
1586281913.4929357,239,2,-22.4609375,-46.875,-44.43359375,-37.59765625,0.0,0
1586281913.496842,239,2,-20.99609375,-62.5,-40.52734375,-33.69140625,0.0,0
1586281913.5007482,239,2,-13.671875,-47.36328125,-48.33984375,-24.4140625,0.0,0
1586281913.5046544,239,2,0.48828125,-4.39453125,-31.73828125,-3.41796875,0.0,0
1586281913.5085607,239,2,-0.9765625,-11.23046875,-29.78515625,-2.9296875,0.0,0
1586281913.512467,239,2,-18.06640625,-21.484375,-36.62109375,-14.16015625,0.0,0
1586281913.5163732,239,2,-25.87890625,-22.94921875,-43.9453125,-17.578125,0.0,0
1586281913.5202794,239,2,-21.97265625,-20.99609375,-39.0625,-9.765625,0.0,0
1586281913.5241857,239,2,-16.6015625,-33.203125,-34.66796875,-5.859375,0.0,0
1586281913.528092,239,2,-11.23046875,-52.24609375,-35.64453125,-9.27734375,0.0,0
1586281913.5319982,239,2,-24.90234375,-52.24609375,-47.36328125,-23.4375,0.0,0
1586281913.5359044,239,2,-36.62109375,-45.8984375,-49.31640625,-24.4140625,0.0,0
1586281913.5398107,239,2,-29.78515625,-49.31640625,-10.25390625,-19.53125,0.0,0
1586281913.543717,239,2,-16.6015625,-40.0390625,-1.46484375,-12.20703125,0.0,0
1586281913.5476232,239,2,-7.32421875,-22.4609375,-13.18359375,-4.39453125,0.0,0
1586281913.5515294,239,2,-22.94921875,-34.1796875,-24.90234375,-13.18359375,0.0,0
1586281913.5554357,239,2,-31.25,-42.48046875,-29.296875,-25.87890625,0.0,0
1586281913.559342,239,2,-22.94921875,-30.76171875,-35.64453125,-29.296875,0.0,0
1586281913.5632482,239,2,-23.92578125,-26.85546875,-46.38671875,-20.01953125,0.0,0
1586281913.5671544,239,2,-23.92578125,-34.1796875,-41.015625,-22.4609375,0.0,0
1586281913.5710607,239,2,-21.484375,-31.73828125,-30.2734375,-28.80859375,0.0,0
1586281913.574967,239,2,-23.4375,-31.25,-21.97265625,-31.25,0.0,0
1586281913.5788732,239,2,-18.5546875,-43.9453125,-26.85546875,-31.73828125,0.0,0
1586281913.5827794,239,2,-9.27734375,-24.90234375,-34.1796875,-27.34375,0.0,0
1586281913.5866857,239,2,-3.41796875,-6.34765625,-23.92578125,-15.13671875,0.0,0
1586281913.590592,239,2,-2.44140625,-12.6953125,-25.87890625,-9.765625,0.0,0
1586281913.5944982,239,2,-8.7890625,-25.87890625,-39.55078125,-20.01953125,0.0,0
1586281913.5984044,239,2,-13.18359375,-45.41015625,-31.25,-22.4609375,0.0,0
1586281913.6023107,239,2,-15.13671875,-50.78125,-45.8984375,-20.99609375,0.0,0
1586281913.606217,239,2,-17.08984375,-37.109375,-56.640625,-18.5546875,0.0,0
1586281913.6101232,239,2,-14.16015625,-27.34375,-36.62109375,-18.5546875,0.0,0
1586281913.6140294,239,2,-22.94921875,-32.71484375,-33.203125,-29.78515625,0.0,0
1586281913.6179357,239,2,-28.80859375,-33.69140625,-48.828125,-22.4609375,0.0,0
1586281913.621842,239,2,-20.01953125,-27.83203125,-56.15234375,-8.7890625,0.0,0
1586281913.6257482,239,2,-17.08984375,-45.41015625,-42.48046875,-6.8359375,0.0,0
1586281913.6296544,239,2,-23.4375,-33.69140625,-33.69140625,-18.06640625,0.0,0
1586281913.6335607,239,2,-23.92578125,-28.80859375,-38.57421875,-28.3203125,0.0,0
1586281913.637467,239,2,-23.92578125,-37.109375,-45.41015625,-25.87890625,0.0,0
1586281913.6413732,239,2,-21.97265625,-31.73828125,-50.78125,-25.390625,0.0,0
1586281913.6452794,239,2,-16.11328125,-39.55078125,-36.1328125,-26.3671875,0.0,0
1586281913.6491857,239,2,-19.53125,-35.15625,-39.55078125,-21.97265625,0.0,0
1586281913.653092,239,2,-33.69140625,-38.57421875,-45.8984375,-23.4375,0.0,0
1586281913.6569982,239,2,-43.9453125,-70.3125,-33.203125,-41.015625,0.0,0
1586281913.6609044,239,2,-41.9921875,-59.5703125,-34.66796875,-41.50390625,0.0,0
1586281913.6648107,239,2,-28.3203125,-33.69140625,-55.17578125,-21.484375,0.0,0
1586281913.668717,239,2,-16.11328125,-25.87890625,-45.8984375,-7.8125,0.0,0
1586281913.6726232,239,2,-23.4375,-20.5078125,-17.578125,-11.71875,0.0,0
1586281913.6765294,239,2,-31.25,-27.83203125,-24.4140625,-18.5546875,0.0,0
1586281913.6804357,239,2,-20.5078125,-46.875,-38.0859375,-23.92578125,0.0,0
1586281913.684342,239,2,-5.859375,-35.64453125,-34.1796875,-19.53125,0.0,0
1586281913.6882482,239,2,-8.7890625,-27.34375,-28.3203125,-21.484375,0.0,0
1586281913.6921544,239,2,-17.08984375,-31.73828125,-31.25,-31.25,0.0,0
1586281913.6960607,239,2,-21.97265625,-27.34375,-38.57421875,-35.15625,0.0,0
1586281913.699967,239,2,-19.04296875,-30.2734375,-31.73828125,-33.69140625,0.0,0
1586281913.7038732,239,2,-13.671875,-26.85546875,-31.25,-22.4609375,0.0,0
1586281913.7077794,239,2,-7.8125,-24.90234375,-37.59765625,-16.6015625,0.0,0
1586281913.7116857,239,2,-3.90625,-25.87890625,-38.0859375,-24.4140625,0.0,0
1586281913.715592,239,2,-8.7890625,-34.66796875,-37.59765625,-27.83203125,0.0,0
1586281913.7194982,239,2,-10.25390625,-55.6640625,-36.1328125,-21.97265625,0.0,0
1586281913.7234044,239,2,-2.44140625,-47.8515625,-31.25,-7.32421875,0.0,0
1586281913.7273107,239,2,-3.90625,-47.36328125,-32.2265625,0.0,0.0,0
1586281913.731217,239,2,-13.18359375,-46.38671875,-35.64453125,0.9765625,0.0,0
1586281913.7351232,239,2,-26.3671875,-19.53125,-35.15625,-10.7421875,0.0,0
1586281913.7390294,239,2,-33.203125,-16.6015625,-35.15625,-21.97265625,0.0,0
1586281913.7429357,239,2,-29.296875,-26.3671875,-33.203125,-18.5546875,0.0,0
1586281913.746842,239,2,-26.3671875,-35.15625,-36.62109375,-20.01953125,0.0,0
1586281913.7507482,239,2,-27.34375,-38.0859375,-41.9921875,-27.83203125,0.0,0
1586281913.7546544,239,2,-35.15625,-28.3203125,-45.8984375,-29.296875,0.0,0
1586281913.7585607,239,2,-31.73828125,-33.203125,-36.62109375,-22.94921875,0.0,0
1586281913.762467,239,2,-19.04296875,-40.0390625,-34.1796875,-26.3671875,0.0,0
1586281913.7663732,239,2,-5.37109375,-40.0390625,-33.69140625,-25.87890625,0.0,0
1586281913.7702794,239,2,-12.20703125,-58.59375,-36.1328125,-35.64453125,0.0,0
1586281913.7741857,239,2,-27.83203125,-46.875,-42.96875,-57.6171875,0.0,0
1586281913.778092,239,2,-22.4609375,-22.4609375,-47.8515625,-53.22265625,0.0,0
1586281913.7819982,239,2,-28.3203125,-21.97265625,-42.96875,-41.50390625,0.0,0
1586281913.7859044,239,2,-24.4140625,-24.90234375,-39.0625,-40.52734375,0.0,0
1586281913.7898107,239,2,-27.34375,-35.15625,-51.26953125,-43.9453125,0.0,0
1586281913.793717,239,2,-52.24609375,-34.66796875,-39.0625,-42.96875,0.0,0
1586281913.7976232,239,2,-38.0859375,-20.99609375,-19.53125,-38.57421875,0.0,0
1586281913.8015294,239,2,-22.94921875,-19.53125,-24.90234375,-26.85546875,0.0,0
1586281913.8054357,239,2,-28.3203125,-33.69140625,-37.109375,-19.04296875,0.0,0
1586281913.809342,239,2,-36.62109375,-40.0390625,-40.0390625,-26.3671875,0.0,0
1586281913.8132482,239,2,-51.26953125,-37.59765625,-38.0859375,-35.64453125,0.0,0
1586281913.8171544,239,2,-57.6171875,-34.1796875,-43.9453125,-45.41015625,0.0,0
1586281913.8210607,239,2,-55.17578125,-32.71484375,-40.0390625,-41.9921875,0.0,0
1586281913.824967,239,2,-54.6875,-33.69140625,-24.90234375,-33.203125,0.0,0
1586281913.8288732,239,2,-67.87109375,-34.66796875,-21.97265625,-48.828125,0.0,0
1586281913.8327794,239,2,-73.2421875,-28.80859375,-31.73828125,-65.4296875,0.0,0
1586281913.8366857,239,2,-70.3125,-23.4375,-30.76171875,-73.2421875,0.0,0
1586281913.840592,239,2,-74.70703125,-26.85546875,-29.296875,-75.1953125,0.0,0
1586281913.8444982,239,2,-78.61328125,-24.4140625,-34.66796875,-70.3125,0.0,0
1586281913.8484044,239,2,-79.1015625,-21.97265625,-28.80859375,-68.359375,0.0,0
1586281913.8523107,239,2,-95.21484375,-28.80859375,-27.83203125,-83.49609375,0.0,0
1586281913.856217,239,2,-105.95703125,-17.08984375,-33.203125,-103.515625,0.0,0
1586281913.8601232,239,2,-104.4921875,-6.8359375,-33.203125,-110.83984375,0.0,0
1586281913.8640294,239,2,-100.5859375,-11.23046875,-20.01953125,-105.46875,0.0,0
1586281913.8679357,239,2,-90.33203125,-13.671875,-25.87890625,-96.19140625,0.0,0
1586281913.871842,239,2,-99.12109375,-12.20703125,-35.15625,-109.86328125,0.0,0
1586281913.8757482,239,2,-111.328125,-18.5546875,-29.78515625,-128.90625,0.0,0
1586281913.8796544,239,2,-118.65234375,-18.5546875,-33.203125,-134.765625,0.0,0
1586281913.8835607,239,2,-115.234375,-15.625,-30.76171875,-129.8828125,0.0,0
1586281913.887467,239,2,-124.51171875,-27.34375,-21.97265625,-133.7890625,0.0,0
1586281913.8913732,239,2,-142.08984375,-25.87890625,-19.53125,-147.94921875,0.0,0
1586281913.8952794,239,2,-159.66796875,-17.578125,-19.53125,-171.875,0.0,0
1586281913.8991857,239,2,-185.05859375,-17.578125,-24.4140625,-183.10546875,0.0,0
1586281913.903092,239,2,-187.98828125,-14.16015625,-27.34375,-170.8984375,0.0,0
1586281913.9069982,239,2,-183.59375,-15.625,-21.484375,-164.0625,0.0,0
1586281913.9109044,239,2,-190.4296875,-24.90234375,-17.08984375,-170.41015625,0.0,0
1586281913.9148107,239,2,-198.2421875,-37.109375,-29.296875,-182.12890625,0.0,0
1586281913.918717,239,2,-194.82421875,-29.296875,-24.4140625,-180.6640625,0.0,0
1586281913.9226232,239,2,-184.08203125,-12.6953125,-6.8359375,-170.8984375,0.0,0
1586281913.9265294,239,2,-183.10546875,-7.8125,3.90625,-154.78515625,0.0,0
1586281913.9304357,239,2,-171.875,-16.6015625,9.27734375,-142.08984375,0.0,0
1586281913.934342,239,2,-161.1328125,-26.3671875,-3.90625,-137.6953125,0.0,0
1586281913.9382482,239,2,-151.85546875,-23.92578125,-32.2265625,-120.60546875,0.0,0
1586281913.9421544,239,2,-145.5078125,-31.73828125,-43.9453125,-109.86328125,0.0,0
1586281913.9460607,239,2,-128.41796875,-40.52734375,-31.25,-106.93359375,0.0,0
1586281913.949967,239,2,-111.328125,-39.55078125,-26.85546875,-101.07421875,0.0,0
1586281913.9538732,239,2,-112.3046875,-36.1328125,-18.5546875,-87.40234375,0.0,0
1586281913.9577794,239,2,-109.86328125,-27.83203125,-11.71875,-78.61328125,0.0,0
1586281913.9616857,239,2,-103.02734375,-48.33984375,-19.53125,-65.91796875,0.0,0
1586281913.965592,239,2,-71.2890625,-42.48046875,-27.83203125,-36.62109375,0.0,0
1586281913.9694982,239,2,-56.15234375,-20.99609375,-39.55078125,-18.5546875,0.0,0
1586281913.9734044,239,2,-60.05859375,-37.59765625,-43.45703125,-19.53125,0.0,0
1586281913.9773107,239,2,-55.17578125,-40.52734375,-36.62109375,-15.13671875,0.0,0
1586281913.981217,239,2,-31.25,-36.1328125,-23.92578125,2.44140625,0.0,0
1586281913.9851232,239,2,-10.25390625,-37.109375,-18.06640625,11.23046875,0.0,0
1586281913.9890294,239,2,0.0,-35.64453125,-28.80859375,14.16015625,0.0,0
1586281913.9929357,239,2,2.44140625,-39.0625,-33.69140625,12.6953125,0.0,0
1586281913.996842,239,2,6.34765625,-46.38671875,-40.52734375,7.32421875,0.0,0
1586281914.0007482,239,2,24.4140625,-45.8984375,-43.9453125,22.4609375,0.0,0
1586281914.0046544,239,2,27.34375,-30.76171875,-54.19921875,30.76171875,0.0,0
1586281914.0085607,239,2,40.52734375,-40.0390625,-62.01171875,24.90234375,0.0,0
1586281914.012467,239,2,54.6875,-55.17578125,-57.12890625,30.76171875,0.0,0
1586281914.0163732,239,2,48.33984375,-29.78515625,-61.03515625,35.15625,0.0,0
1586281914.0202794,239,2,45.41015625,-21.484375,-50.29296875,35.64453125,0.0,0
1586281914.0241857,239,2,48.828125,-28.80859375,-38.57421875,44.921875,0.0,0
1586281914.028092,239,2,45.41015625,-29.296875,-32.71484375,61.03515625,0.0,0
1586281914.0319982,239,2,37.59765625,-35.15625,-27.34375,55.6640625,0.0,0
1586281914.0359044,239,2,31.73828125,-42.48046875,-31.73828125,44.43359375,0.0,0
1586281914.0398107,239,2,35.64453125,-43.45703125,-39.55078125,54.6875,0.0,0
1586281914.043717,239,2,29.78515625,-49.31640625,-48.33984375,64.453125,0.0,0
1586281914.0476232,239,2,35.64453125,-55.6640625,-43.9453125,57.12890625,0.0,0
1586281914.0515294,239,2,37.59765625,-58.59375,-28.80859375,44.921875,0.0,0
1586281914.0554357,239,2,21.484375,-40.52734375,-25.87890625,36.1328125,0.0,0
1586281914.059342,239,2,19.04296875,-25.87890625,-28.3203125,31.73828125,0.0,0
1586281914.0632482,239,2,39.0625,-46.875,-42.96875,41.50390625,0.0,0
1586281914.0671544,239,2,53.22265625,-47.8515625,-60.546875,56.640625,0.0,0
1586281914.0710607,239,2,55.17578125,-37.109375,-41.9921875,63.4765625,0.0,0
1586281914.074967,239,2,62.98828125,-43.45703125,-40.0390625,68.359375,0.0,0
1586281914.0788732,239,2,64.94140625,-38.0859375,-48.33984375,62.5,0.0,0
1586281914.0827794,239,2,63.96484375,-37.109375,-40.0390625,60.05859375,0.0,0
1586281914.0866857,239,2,66.89453125,-45.41015625,-32.2265625,61.03515625,0.0,0
1586281914.090592,239,2,60.05859375,-49.8046875,-40.52734375,57.12890625,0.0,0
1586281914.0944982,239,2,49.31640625,-55.6640625,-34.1796875,46.38671875,0.0,0
1586281914.0984044,239,2,43.9453125,-37.59765625,-29.78515625,33.69140625,0.0,0
1586281914.1023107,239,2,44.921875,-23.4375,-46.875,33.69140625,0.0,0
1586281914.106217,239,2,41.50390625,-30.76171875,-47.36328125,35.15625,0.0,0
1586281914.1101232,239,2,36.1328125,-40.0390625,-48.828125,30.76171875,0.0,0
1586281914.1140294,239,2,31.73828125,-44.43359375,-55.17578125,29.78515625,0.0,0
1586281914.1179357,239,2,24.4140625,-40.52734375,-39.55078125,21.97265625,0.0,0
1586281914.121842,239,2,28.80859375,-36.1328125,-9.765625,31.25,0.0,0
1586281914.1257482,239,2,37.109375,-43.9453125,-11.71875,41.9921875,0.0,0
1586281914.1296544,239,2,30.2734375,-58.10546875,-34.66796875,34.1796875,0.0,0
1586281914.1335607,239,2,20.5078125,-46.38671875,-54.6875,41.9921875,0.0,0
1586281914.137467,239,2,8.7890625,-34.1796875,-51.7578125,30.2734375,0.0,0
1586281914.1413732,239,2,4.39453125,-40.52734375,-33.69140625,25.87890625,0.0,0
1586281914.1452794,239,2,27.34375,-28.80859375,-47.8515625,41.015625,0.0,0
1586281914.1491857,239,2,32.71484375,-32.71484375,-57.6171875,42.96875,0.0,0
1586281914.153092,239,2,18.5546875,-44.43359375,-45.8984375,37.109375,0.0,0
1586281914.1569982,239,2,12.6953125,-36.62109375,-40.52734375,33.69140625,0.0,0
1586281914.1609044,239,2,21.484375,-16.11328125,-41.015625,32.71484375,0.0,0
1586281914.1648107,239,2,30.76171875,-20.5078125,-34.66796875,34.1796875,0.0,0
1586281914.168717,239,2,33.69140625,-37.109375,-48.33984375,31.25,0.0,0
1586281914.1726232,239,2,27.34375,-23.92578125,-59.08203125,20.01953125,0.0,0
1586281914.1765294,239,2,28.3203125,-27.83203125,-38.57421875,0.0,0.0,0
1586281914.1804357,239,2,32.2265625,-35.64453125,-41.9921875,1.953125,0.0,0
1586281914.184342,239,2,25.390625,-29.296875,-52.24609375,9.27734375,0.0,0
1586281914.1882482,239,2,27.34375,-28.3203125,-57.6171875,1.953125,0.0,0
1586281914.1921544,239,2,25.87890625,-23.92578125,-52.24609375,-2.44140625,0.0,0
1586281914.1960607,239,2,17.578125,-31.25,-37.59765625,-0.48828125,0.0,0
1586281914.199967,239,2,6.8359375,-53.7109375,-39.55078125,6.34765625,0.0,0
1586281914.2038732,239,2,13.18359375,-55.17578125,-71.77734375,14.16015625,0.0,0
1586281914.2077794,239,2,21.484375,-52.734375,-74.21875,14.16015625,0.0,0
1586281914.2116857,239,2,1.953125,-59.5703125,-31.73828125,9.27734375,0.0,0
1586281914.215592,239,2,-6.34765625,-46.38671875,-30.76171875,-1.953125,0.0,0
1586281914.2194982,239,2,-9.27734375,-42.48046875,-36.1328125,-15.13671875,0.0,0
1586281914.2234044,239,2,-15.13671875,-48.33984375,-36.62109375,-9.27734375,0.0,0
1586281914.2273107,239,2,-15.13671875,-40.52734375,-40.52734375,-3.41796875,0.0,0
1586281914.231217,239,2,-7.8125,-30.2734375,-32.2265625,-11.23046875,0.0,0
1586281914.2351232,239,2,-15.13671875,-44.921875,-35.15625,-23.92578125,0.0,0
1586281914.2390294,239,2,-9.27734375,-46.38671875,-42.96875,-18.06640625,0.0,0
1586281914.2429357,239,2,13.671875,-21.484375,-56.15234375,-4.39453125,0.0,0
1586281914.246842,239,2,12.6953125,-29.78515625,-56.640625,-1.953125,0.0,0
1586281914.2507482,239,2,0.48828125,-45.8984375,-50.29296875,-8.30078125,0.0,0
1586281914.2546544,239,2,-5.37109375,-45.41015625,-57.12890625,-6.8359375,0.0,0
1586281914.2585607,239,2,-2.9296875,-47.36328125,-40.0390625,-3.90625,0.0,0
1586281914.262467,239,2,-0.9765625,-51.26953125,-28.80859375,-0.9765625,0.0,0
1586281914.2663732,239,2,7.32421875,-40.52734375,-31.25,2.44140625,0.0,0
1586281914.2702794,239,2,12.20703125,-16.6015625,-35.64453125,11.71875,0.0,0
1586281914.2741857,239,2,-3.41796875,-11.71875,-55.6640625,3.90625,0.0,0
1586281914.278092,239,2,-8.30078125,-43.45703125,-49.8046875,-10.25390625,0.0,0
1586281914.2819982,239,2,4.8828125,-63.4765625,-48.33984375,-8.30078125,0.0,0
1586281914.2859044,239,2,17.08984375,-48.828125,-39.0625,2.9296875,0.0,0
1586281914.2898107,239,2,15.13671875,-45.41015625,-18.5546875,3.41796875,0.0,0
1586281914.293717,239,2,-2.44140625,-37.109375,-26.3671875,-11.71875,0.0,0
1586281914.2976232,239,2,-19.53125,-24.90234375,-43.9453125,-25.87890625,0.0,0
1586281914.3015294,239,2,-16.11328125,-34.1796875,-58.10546875,-22.94921875,0.0,0
1586281914.3054357,239,2,-4.39453125,-48.33984375,-71.77734375,-14.16015625,0.0,0
1586281914.309342,239,2,2.9296875,-34.66796875,-51.7578125,-6.8359375,0.0,0
1586281914.3132482,239,2,-0.48828125,-40.0390625,-34.1796875,-2.9296875,0.0,0
1586281914.3171544,239,2,-15.13671875,-36.62109375,-37.59765625,-14.6484375,0.0,0
1586281914.3210607,239,2,-12.20703125,-32.71484375,-34.1796875,-20.99609375,0.0,0
1586281914.324967,239,2,4.39453125,-50.29296875,-35.15625,-6.34765625,0.0,0
1586281914.3288732,239,2,-9.27734375,-37.59765625,-44.43359375,1.953125,0.0,0
1586281914.3327794,239,2,-18.5546875,-27.34375,-43.45703125,-7.8125,0.0,0
1586281914.3366857,239,2,-7.8125,-40.0390625,-21.97265625,-17.578125,0.0,0
1586281914.340592,239,2,-18.5546875,-43.45703125,-37.109375,-19.53125,0.0,0
1586281914.3444982,239,2,-16.11328125,-54.19921875,-66.89453125,-12.6953125,0.0,0
1586281914.3484044,239,2,-9.765625,-54.6875,-43.45703125,-6.8359375,0.0,0
1586281914.3523107,239,2,-20.01953125,-33.69140625,-6.8359375,-10.25390625,0.0,0
1586281914.356217,239,2,-28.3203125,-43.45703125,-8.30078125,-19.04296875,0.0,0
1586281914.3601232,239,2,-22.4609375,-44.43359375,-27.34375,-16.11328125,0.0,0
1586281914.3640294,239,2,-5.859375,-26.85546875,-35.15625,-4.8828125,0.0,0
1586281914.3679357,239,2,-3.41796875,-36.1328125,-43.45703125,-5.37109375,0.0,0
1586281914.371842,239,2,-10.25390625,-40.0390625,-41.015625,0.0,0.0,0
1586281914.3757482,239,2,-16.6015625,-32.71484375,-32.2265625,-5.859375,0.0,0
1586281914.3796544,239,2,-24.90234375,-34.66796875,-46.38671875,-12.6953125,0.0,0
1586281914.3835607,239,2,-19.53125,-38.57421875,-40.0390625,-8.30078125,0.0,0
1586281914.387467,239,2,-9.27734375,-43.45703125,-4.39453125,-5.37109375,0.0,0
1586281914.3913732,239,2,-13.671875,-55.6640625,-7.32421875,-1.953125,0.0,0
1586281914.3952794,239,2,-21.97265625,-45.41015625,-52.24609375,-23.4375,0.0,0
1586281914.3991857,239,2,-26.85546875,-24.90234375,-63.4765625,-26.85546875,0.0,0
1586281914.403092,239,2,-23.4375,-30.2734375,-59.5703125,-2.9296875,0.0,0
1586281914.4069982,239,2,0.9765625,-20.99609375,-68.359375,4.8828125,0.0,0
1586281914.4109044,239,2,2.9296875,-22.94921875,-41.015625,-9.27734375,0.0,0
1586281914.4148107,239,2,-17.08984375,-49.8046875,-20.99609375,-22.4609375,0.0,0
1586281914.418717,239,2,-24.4140625,-41.015625,-25.390625,-18.5546875,0.0,0
1586281914.4226232,239,2,-4.8828125,-26.3671875,-18.5546875,1.953125,0.0,0
1586281914.4265294,239,2,-5.37109375,-53.7109375,-22.94921875,5.37109375,0.0,0
1586281914.4304357,239,2,-24.4140625,-44.43359375,-31.25,-12.20703125,0.0,0
1586281914.434342,239,2,-33.203125,-4.8828125,-30.2734375,-13.671875,0.0,0
1586281914.4382482,239,2,-39.0625,-23.92578125,-23.92578125,-15.13671875,0.0,0
1586281914.4421544,239,2,-37.109375,-53.7109375,-34.1796875,-27.83203125,0.0,0
1586281914.4460607,239,2,-38.0859375,-43.9453125,-41.015625,-19.53125,0.0,0
1586281914.449967,239,2,-38.57421875,-41.50390625,-48.33984375,-6.34765625,0.0,0
1586281914.4538732,239,2,-16.6015625,-36.62109375,-67.3828125,-6.34765625,0.0,0
1586281914.4577794,239,2,-4.8828125,-30.76171875,-62.5,-11.23046875,0.0,0
1586281914.4616857,239,2,1.953125,-38.0859375,-33.203125,-3.41796875,0.0,0
1586281914.465592,239,2,8.7890625,-41.9921875,-30.2734375,12.6953125,0.0,0
1586281914.4694982,239,2,-2.44140625,-36.1328125,-40.52734375,2.44140625,0.0,0
1586281914.4734044,239,2,-5.859375,-31.25,-36.1328125,-14.16015625,0.0,0
1586281914.4773107,239,2,-1.953125,-34.66796875,-32.2265625,-15.13671875,0.0,0
1586281914.481217,239,2,-4.39453125,-60.546875,-28.3203125,-16.6015625,0.0,0
1586281914.4851232,239,2,-0.9765625,-58.10546875,-34.66796875,-14.6484375,0.0,0
1586281914.4890294,239,2,-0.48828125,-32.71484375,-46.875,-11.23046875,0.0,0
1586281914.4929357,239,2,-14.16015625,-35.64453125,-37.59765625,-18.5546875,0.0,0
1586281914.496842,239,2,-21.97265625,-24.90234375,-40.0390625,-19.04296875,0.0,0
1586281914.5007482,239,2,-15.625,-20.5078125,-50.29296875,-19.53125,0.0,0
1586281914.5046544,239,2,-7.32421875,-26.3671875,-40.52734375,-20.5078125,0.0,0
1586281914.5085607,239,2,-3.41796875,-27.34375,-30.76171875,-5.859375,0.0,0
1586281914.512467,239,2,-14.16015625,-40.0390625,-27.34375,-11.71875,0.0,0
1586281914.5163732,239,2,-33.69140625,-64.94140625,-31.25,-19.53125,0.0,0
1586281914.5202794,239,2,-44.43359375,-63.4765625,-34.1796875,-11.23046875,0.0,0
1586281914.5241857,239,2,-15.625,-41.015625,-24.90234375,-1.953125,0.0,0
1586281914.528092,239,2,-0.9765625,-27.83203125,-27.83203125,1.46484375,0.0,0
1586281914.5319982,239,2,-10.7421875,-24.4140625,-39.0625,1.953125,0.0,0
1586281914.5359044,239,2,-20.5078125,-44.921875,-37.59765625,-8.30078125,0.0,0
1586281914.5398107,239,2,-17.578125,-43.45703125,-31.25,-16.11328125,0.0,0
1586281914.543717,239,2,-2.9296875,-27.34375,-43.45703125,-5.37109375,0.0,0
1586281914.5476232,239,2,-0.9765625,-27.34375,-40.52734375,-9.27734375,0.0,0
1586281914.5515294,239,2,-7.8125,-33.203125,-43.45703125,-24.90234375,0.0,0
1586281914.5554357,239,2,-30.76171875,-43.9453125,-57.12890625,-33.203125,0.0,0
1586281914.559342,239,2,-30.2734375,-41.015625,-45.41015625,-39.0625,0.0,0
1586281914.5632482,239,2,-13.18359375,-36.62109375,-27.83203125,-23.4375,0.0,0
1586281914.5671544,239,2,-5.859375,-35.15625,-28.80859375,-11.23046875,0.0,0
1586281914.5710607,239,2,-16.11328125,-44.43359375,-40.52734375,-28.80859375,0.0,0
1586281914.574967,239,2,-36.1328125,-42.96875,-42.96875,-48.33984375,0.0,0
1586281914.5788732,239,2,-35.64453125,-25.87890625,-36.62109375,-46.875,0.0,0
1586281914.5827794,239,2,-25.87890625,-26.3671875,-42.96875,-36.62109375,0.0,0
1586281914.5866857,239,2,-19.04296875,-36.62109375,-47.36328125,-23.92578125,0.0,0
1586281914.590592,239,2,-10.7421875,-48.33984375,-41.015625,-12.20703125,0.0,0
1586281914.5944982,239,2,-16.11328125,-43.45703125,-47.36328125,-12.20703125,0.0,0
1586281914.5984044,239,2,-28.3203125,-44.43359375,-40.52734375,-11.71875,0.0,0
1586281914.6023107,239,2,-10.7421875,-46.38671875,-40.0390625,-8.7890625,0.0,0
1586281914.606217,239,2,2.9296875,-23.4375,-54.6875,-2.9296875,0.0,0
1586281914.6101232,239,2,-6.34765625,-27.83203125,-33.69140625,7.32421875,0.0,0
1586281914.6140294,239,2,-18.06640625,-42.48046875,-31.25,-4.8828125,0.0,0
1586281914.6179357,239,2,-28.80859375,-41.9921875,-37.59765625,-19.53125,0.0,0
1586281914.621842,239,2,-31.25,-39.55078125,-25.390625,-9.765625,0.0,0
1586281914.6257482,239,2,-27.83203125,-37.109375,-19.53125,-1.46484375,0.0,0
1586281914.6296544,239,2,-33.203125,-43.9453125,-35.15625,-8.30078125,0.0,0
1586281914.6335607,239,2,-31.73828125,-38.57421875,-53.22265625,-17.08984375,0.0,0
1586281914.637467,239,2,-24.90234375,-26.85546875,-58.10546875,-21.97265625,0.0,0
1586281914.6413732,239,2,-16.6015625,-45.41015625,-44.921875,-18.5546875,0.0,0
1586281914.6452794,239,2,-5.859375,-55.6640625,-26.3671875,-3.90625,0.0,0
1586281914.6491857,239,2,-13.671875,-32.2265625,-50.29296875,-14.6484375,0.0,0
1586281914.653092,239,2,-29.78515625,-19.04296875,-76.171875,-31.25,0.0,0
1586281914.6569982,239,2,-25.390625,-36.62109375,-55.6640625,-26.3671875,0.0,0
1586281914.6609044,239,2,-23.92578125,-43.9453125,-19.04296875,-27.34375,0.0,0
1586281914.6648107,239,2,-32.2265625,-24.4140625,-23.92578125,-32.2265625,0.0,0
1586281914.668717,239,2,-9.765625,-14.6484375,-38.57421875,-22.4609375,0.0,0
1586281914.6726232,239,2,-4.8828125,-19.53125,-33.203125,-22.94921875,0.0,0
1586281914.6765294,239,2,-22.4609375,-32.71484375,-42.48046875,-29.78515625,0.0,0
1586281914.6804357,239,2,-12.20703125,-40.0390625,-35.15625,-22.4609375,0.0,0
1586281914.684342,239,2,2.44140625,-47.36328125,-20.01953125,-11.23046875,0.0,0
1586281914.6882482,239,2,-4.39453125,-40.0390625,-28.3203125,4.8828125,0.0,0
1586281914.6921544,239,2,-20.99609375,-24.4140625,-43.45703125,-5.859375,0.0,0
1586281914.6960607,239,2,-29.296875,-16.11328125,-37.109375,-33.203125,0.0,0
1586281914.699967,239,2,-34.1796875,-17.578125,-41.015625,-36.1328125,0.0,0
1586281914.7038732,239,2,-22.94921875,-36.62109375,-48.33984375,-20.5078125,0.0,0
1586281914.7077794,239,2,-10.7421875,-47.36328125,-37.59765625,-11.23046875,0.0,0
1586281914.7116857,239,2,-26.3671875,-45.8984375,-27.83203125,-26.85546875,0.0,0
1586281914.715592,239,2,-37.59765625,-41.9921875,-27.34375,-21.97265625,0.0,0
1586281914.7194982,239,2,-33.203125,-39.0625,-25.87890625,-13.18359375,0.0,0
1586281914.7234044,239,2,-27.83203125,-34.66796875,-36.62109375,-12.20703125,0.0,0
1586281914.7273107,239,2,-24.90234375,-36.1328125,-45.41015625,-10.25390625,0.0,0
1586281914.731217,239,2,-34.1796875,-38.0859375,-29.78515625,-6.8359375,0.0,0
1586281914.7351232,239,2,-44.43359375,-45.41015625,-20.5078125,-12.20703125,0.0,0
1586281914.7390294,239,2,-42.96875,-34.66796875,-26.85546875,-31.73828125,0.0,0
1586281914.7429357,239,2,-29.78515625,-21.484375,-22.94921875,-23.4375,0.0,0
1586281914.746842,239,2,-15.13671875,-29.296875,-19.53125,-3.90625,0.0,0
1586281914.7507482,239,2,-17.08984375,-25.87890625,-41.50390625,-13.18359375,0.0,0
1586281914.7546544,239,2,-21.97265625,-30.76171875,-54.6875,-24.90234375,0.0,0
1586281914.7585607,239,2,-22.4609375,-42.48046875,-52.734375,-28.3203125,0.0,0
1586281914.762467,239,2,-15.625,-33.203125,-56.15234375,-26.85546875,0.0,0
1586281914.7663732,239,2,-0.9765625,-25.390625,-46.875,-21.484375,0.0,0
1586281914.7702794,239,2,-1.953125,-31.73828125,-37.59765625,-21.484375,0.0,0
1586281914.7741857,239,2,-14.6484375,-38.57421875,-30.76171875,-27.34375,0.0,0
1586281914.778092,239,2,-20.5078125,-56.640625,-23.4375,-23.4375,0.0,0
1586281914.7819982,239,2,-17.08984375,-52.24609375,-23.4375,-21.484375,0.0,0
1586281914.7859044,239,2,-14.6484375,-37.109375,-21.97265625,-24.90234375,0.0,0
1586281914.7898107,239,2,-15.13671875,-29.78515625,-28.80859375,-22.4609375,0.0,0
1586281914.793717,239,2,-14.6484375,-17.08984375,-35.15625,-5.37109375,0.0,0
1586281914.7976232,239,2,-18.5546875,-27.83203125,-28.3203125,-7.32421875,0.0,0
1586281914.8015294,239,2,-20.01953125,-41.9921875,-34.66796875,-10.7421875,0.0,0
1586281914.8054357,239,2,-16.11328125,-49.31640625,-37.109375,3.41796875,0.0,0
1586281914.809342,239,2,-20.5078125,-44.921875,-36.1328125,1.46484375,0.0,0
1586281914.8132482,239,2,-27.83203125,-28.3203125,-46.875,-6.34765625,0.0,0
1586281914.8171544,239,2,-30.76171875,-53.22265625,-28.80859375,-8.30078125,0.0,0
1586281914.8210607,239,2,-20.01953125,-47.36328125,-16.11328125,-9.765625,0.0,0
1586281914.824967,239,2,-14.16015625,-18.5546875,-37.59765625,-6.34765625,0.0,0
1586281914.8288732,239,2,-20.5078125,-18.06640625,-40.52734375,-2.9296875,0.0,0
1586281914.8327794,239,2,-22.4609375,-19.53125,-38.57421875,-8.7890625,0.0,0
1586281914.8366857,239,2,-21.97265625,-32.2265625,-26.85546875,-20.01953125,0.0,0
1586281914.840592,239,2,-21.484375,-32.2265625,-15.13671875,-17.578125,0.0,0
1586281914.8444982,239,2,-14.6484375,-30.2734375,-30.2734375,-19.53125,0.0,0
1586281914.8484044,239,2,-2.9296875,-44.921875,-23.4375,-26.3671875,0.0,0
1586281914.8523107,239,2,-14.16015625,-43.9453125,-13.671875,-32.71484375,0.0,0
1586281914.856217,239,2,-28.80859375,-38.0859375,-25.390625,-33.69140625,0.0,0
1586281914.8601232,239,2,-25.87890625,-30.76171875,-52.24609375,-34.1796875,0.0,0
1586281914.8640294,239,2,-10.7421875,-18.06640625,-66.40625,-32.71484375,0.0,0
1586281914.8679357,239,2,0.9765625,-22.94921875,-32.2265625,-12.6953125,0.0,0
1586281914.871842,239,2,0.48828125,-31.73828125,-34.66796875,-2.9296875,0.0,0
1586281914.8757482,239,2,-7.8125,-27.34375,-59.08203125,-8.7890625,0.0,0
1586281914.8796544,239,2,-13.18359375,-32.71484375,-33.69140625,-8.7890625,0.0,0
1586281914.8835607,239,2,1.46484375,-35.64453125,-8.30078125,6.8359375,0.0,0
