timestamps,words,terms,TP9,AF7,AF8,TP10,Right AUX,Marker
1586284762.48675,1,1,-21.484375,-15.13671875,-19.53125,-2.44140625,0.0,0
1586284762.4906561,1,1,45.8984375,-18.06640625,-6.34765625,20.5078125,0.0,0
1586284762.4945624,1,1,34.66796875,-30.2734375,-18.5546875,10.25390625,0.0,0
1586284762.4984686,1,1,-32.2265625,-38.0859375,-31.73828125,-26.3671875,0.0,0
1586284762.502375,1,1,-77.1484375,-33.203125,-27.34375,-49.31640625,0.0,0
1586284762.5062811,1,1,-45.41015625,-38.0859375,-35.15625,-28.80859375,0.0,0
1586284762.5101874,1,1,25.87890625,-31.73828125,-40.52734375,8.7890625,0.0,0
1586284762.5140936,1,1,36.1328125,-26.3671875,-42.96875,3.41796875,0.0,0
1586284762.518,1,1,-23.4375,-19.04296875,-44.43359375,-28.80859375,0.0,0
1586284762.5219061,1,1,-64.453125,-9.27734375,-39.55078125,-46.875,0.0,0
1586284762.5258124,1,1,-35.15625,-20.01953125,-34.66796875,-32.2265625,0.0,0
1586284762.5297186,1,1,29.296875,-33.203125,-26.85546875,5.859375,0.0,0
1586284762.533625,1,1,45.41015625,-38.0859375,-26.3671875,11.71875,0.0,0
1586284762.5375311,1,1,-8.7890625,-21.484375,-21.484375,-12.6953125,0.0,0
1586284762.5414374,1,1,-63.4765625,-11.23046875,-15.625,-40.0390625,0.0,0
1586284762.5453436,1,1,-51.26953125,-20.5078125,-36.1328125,-42.48046875,0.0,0
1586284762.54925,1,1,17.08984375,-28.3203125,-37.109375,-7.8125,0.0,0
1586284762.5531561,1,1,48.828125,-29.296875,-16.6015625,8.30078125,0.0,0
1586284762.5570624,1,1,-5.37109375,-20.5078125,-19.53125,-23.92578125,0.0,0
1586284762.5609686,1,1,-70.3125,-15.625,-21.484375,-54.19921875,0.0,0
1586284762.564875,1,1,-71.2890625,-30.76171875,-33.203125,-47.8515625,0.0,0
1586284762.5687811,1,1,-9.27734375,-22.94921875,-54.19921875,-15.13671875,0.0,0
1586284762.5726874,1,1,32.2265625,-8.7890625,-33.203125,6.8359375,0.0,0
1586284762.5765936,1,1,-9.27734375,-19.04296875,-15.13671875,-16.11328125,0.0,0
1586284762.5805,1,1,-72.75390625,-22.94921875,-17.578125,-53.7109375,0.0,0
1586284762.5844061,1,1,-82.03125,-28.3203125,-26.85546875,-50.78125,0.0,0
1586284762.5883124,1,1,-18.06640625,-35.64453125,-37.109375,-12.6953125,0.0,0
1586284762.5922186,1,1,35.15625,-41.50390625,-25.87890625,4.8828125,0.0,0
1586284762.596125,1,1,-7.8125,-35.15625,-28.80859375,-25.87890625,0.0,0
1586284762.6000311,1,1,-78.125,-31.73828125,-37.59765625,-54.6875,0.0,0
1586284762.6039374,1,1,-89.84375,-32.71484375,-39.55078125,-43.9453125,0.0,0
1586284762.6078436,1,1,-31.73828125,-32.71484375,-35.64453125,-17.578125,0.0,0
1586284762.61175,1,1,21.97265625,-29.296875,-30.2734375,13.18359375,0.0,0
1586284762.6156561,1,1,13.18359375,-18.5546875,-28.80859375,11.71875,0.0,0
1586284762.6195624,1,1,-44.43359375,-12.6953125,-30.2734375,-27.83203125,0.0,0
1586284762.6234686,1,1,-62.5,-10.7421875,-36.1328125,-34.66796875,0.0,0
1586284762.627375,1,1,-3.41796875,-18.06640625,-44.921875,-4.39453125,0.0,0
1586284762.6312811,1,1,54.6875,-38.0859375,-48.33984375,23.92578125,0.0,0
1586284762.6351874,1,1,31.25,-34.66796875,-47.36328125,12.6953125,0.0,0
1586284762.6390936,1,1,-42.96875,-1.953125,-36.62109375,-28.3203125,0.0,0
1586284762.643,1,1,-72.265625,-1.953125,-23.4375,-46.38671875,0.0,0
1586284762.6469061,1,1,-35.15625,-27.34375,-36.62109375,-29.78515625,0.0,0
1586284762.6508124,1,1,26.85546875,-31.25,-39.55078125,5.37109375,0.0,0
1586284762.6547186,1,1,27.34375,-14.16015625,-21.484375,5.859375,0.0,0
1586284762.658625,1,1,-41.50390625,-21.97265625,-28.80859375,-46.38671875,0.0,0
1586284762.6625311,1,1,-81.54296875,-31.73828125,-35.64453125,-66.40625,0.0,0
1586284762.6664374,1,1,-41.9921875,-25.390625,-40.0390625,-37.109375,0.0,0
1586284762.6703436,1,1,25.87890625,-15.625,-39.0625,4.39453125,0.0,0
1586284762.67425,1,1,30.76171875,-18.06640625,-31.25,17.08984375,0.0,0
1586284762.6781561,1,1,-43.9453125,-33.203125,-41.9921875,-24.4140625,0.0,0
1586284762.6820624,1,1,-99.609375,-35.64453125,-38.0859375,-52.734375,0.0,0
1586284762.6859686,1,1,-61.5234375,-21.484375,-12.20703125,-27.83203125,0.0,0
1586284762.689875,1,1,4.39453125,-12.6953125,-19.04296875,8.7890625,0.0,0
1586284762.6937811,1,1,22.4609375,-28.3203125,-35.64453125,14.6484375,0.0,0
1586284762.6976874,1,1,-27.34375,-40.0390625,-20.5078125,-19.04296875,0.0,0
1586284762.7015936,1,1,-82.51953125,-25.87890625,-24.90234375,-51.26953125,0.0,0
1586284762.7055,1,1,-60.546875,-44.43359375,-37.59765625,-27.34375,0.0,0
1586284762.7094061,1,1,8.30078125,-50.78125,-27.83203125,18.5546875,0.0,0
1586284762.7133124,1,1,38.0859375,-14.6484375,-16.6015625,18.06640625,0.0,0
1586284762.7172186,1,1,-12.6953125,-20.01953125,-1.953125,-18.06640625,0.0,0
1586284762.721125,1,1,-78.125,-35.64453125,-29.296875,-57.12890625,0.0,0
1586284762.7250311,1,1,-81.54296875,-35.64453125,-62.98828125,-54.6875,0.0,0
1586284762.7289374,1,1,-14.16015625,-30.2734375,-53.7109375,-13.18359375,0.0,0
1586284762.7328436,1,1,34.1796875,-16.11328125,-26.3671875,3.90625,0.0,0
1586284762.73675,1,1,-16.11328125,-22.4609375,-21.97265625,-26.85546875,0.0,0
1586284762.7406561,1,1,-84.9609375,-32.2265625,-25.390625,-63.96484375,0.0,0
1586284762.7445624,1,1,-73.73046875,-40.0390625,-28.3203125,-58.10546875,0.0,0
1586284762.7484686,1,1,-8.30078125,-41.50390625,-35.64453125,-25.390625,0.0,0
1586284762.752375,1,1,32.71484375,-35.15625,-40.52734375,-4.8828125,0.0,0
1586284762.7562811,1,1,-6.34765625,-41.50390625,-37.109375,-22.4609375,0.0,0
1586284762.7601874,1,1,-68.84765625,-32.71484375,-36.62109375,-48.33984375,0.0,0
1586284762.7640936,1,1,-78.125,-18.5546875,-33.203125,-43.9453125,0.0,0
1586284762.768,1,1,-20.01953125,-21.97265625,-26.85546875,-8.30078125,0.0,0
1586284762.7719061,1,1,39.0625,-17.578125,-28.80859375,16.6015625,0.0,0
1586284762.7758124,1,1,13.18359375,-12.20703125,-29.296875,0.48828125,0.0,0
1586284762.7797186,1,1,-62.01171875,-15.625,-27.83203125,-42.48046875,0.0,0
1586284762.783625,1,1,-88.37890625,-24.90234375,-48.828125,-54.19921875,0.0,0
1586284762.7875311,1,1,-33.203125,-37.109375,-45.41015625,-22.4609375,0.0,0
1586284762.7914374,1,1,27.34375,-38.57421875,-35.64453125,0.0,0.0,0
1586284762.7953436,1,1,13.18359375,-34.1796875,-45.41015625,-1.46484375,0.0,0
1586284762.79925,1,1,-58.10546875,-23.4375,-44.43359375,-36.62109375,0.0,0
1586284762.8031561,1,1,-92.7734375,-19.53125,-40.0390625,-60.546875,0.0,0
1586284762.8070624,1,1,-40.0390625,-36.62109375,-30.2734375,-36.1328125,0.0,0
1586284762.8109686,1,1,24.90234375,-26.85546875,-17.08984375,-0.9765625,0.0,0
1586284762.814875,1,1,28.3203125,-9.765625,-29.78515625,5.859375,0.0,0
1586284762.8187811,1,1,-31.73828125,-11.23046875,-26.3671875,-26.3671875,0.0,0
1586284762.8226874,1,1,-88.37890625,-18.5546875,-22.4609375,-58.59375,0.0,0
1586284762.8265936,1,1,-53.22265625,-15.13671875,-30.76171875,-41.50390625,0.0,0
1586284762.8305,1,1,24.4140625,-11.71875,-22.94921875,4.8828125,0.0,0
1586284762.8344061,1,1,33.69140625,-19.04296875,-20.99609375,10.25390625,0.0,0
1586284762.8383124,1,1,-23.4375,-26.3671875,-17.08984375,-28.3203125,0.0,0
1586284762.8422186,1,1,-69.3359375,-28.80859375,-12.6953125,-52.24609375,0.0,0
1586284762.846125,1,1,-40.0390625,-21.484375,-27.83203125,-31.73828125,0.0,0
1586284762.8500311,1,1,34.1796875,-20.5078125,-28.3203125,7.8125,0.0,0
1586284762.8539374,1,1,51.7578125,-27.83203125,-7.32421875,14.6484375,0.0,0
1586284762.8578436,1,1,-13.18359375,-16.6015625,-12.20703125,-21.97265625,0.0,0
1586284762.86175,1,1,-75.68359375,-25.390625,-26.85546875,-50.29296875,0.0,0
1586284762.8656561,1,1,-50.78125,-40.52734375,-37.59765625,-34.66796875,0.0,0
1586284762.8695624,1,1,20.01953125,-20.01953125,-46.38671875,0.0,0.0,0
1586284762.8734686,1,1,37.109375,-13.18359375,-47.8515625,0.9765625,0.0,0
1586284762.877375,1,1,-18.06640625,-29.296875,-41.015625,-25.87890625,0.0,0
1586284762.8812811,1,1,-78.61328125,-38.0859375,-37.109375,-53.7109375,0.0,0
1586284762.8851874,1,1,-62.01171875,-30.76171875,-29.296875,-44.43359375,0.0,0
1586284762.8890936,1,1,7.32421875,-16.6015625,-22.94921875,-7.32421875,0.0,0
1586284762.893,1,1,41.50390625,-12.20703125,-19.04296875,2.44140625,0.0,0
1586284762.8969061,1,1,2.44140625,-13.18359375,-12.6953125,-14.16015625,0.0,0
1586284762.9008124,1,1,-70.80078125,-13.18359375,-21.484375,-39.55078125,0.0,0
1586284762.9047186,1,1,-80.56640625,-19.04296875,-22.4609375,-43.45703125,0.0,0
1586284762.908625,1,1,-11.23046875,-12.6953125,-26.85546875,-7.8125,0.0,0
1586284762.9125311,1,1,41.9921875,-10.25390625,-46.38671875,24.90234375,0.0,0
1586284762.9164374,1,1,8.30078125,-18.06640625,-51.26953125,0.48828125,0.0,0
1586284762.9203436,1,1,-60.546875,-20.99609375,-48.33984375,-41.015625,0.0,0
1586284762.92425,1,1,-73.2421875,-31.73828125,-36.1328125,-44.921875,0.0,0
1586284762.9281561,1,1,-6.8359375,-35.64453125,-28.80859375,-11.23046875,0.0,0
1586284762.9320624,1,1,58.10546875,-24.4140625,-15.625,22.94921875,0.0,0
1586284762.9359686,1,1,26.3671875,-5.859375,-1.953125,4.8828125,0.0,0
1586284762.939875,1,1,-55.17578125,-23.92578125,-21.484375,-41.50390625,0.0,0
1586284762.9437811,1,1,-84.9609375,-38.57421875,-43.9453125,-47.8515625,0.0,0
1586284762.9476874,1,1,-26.3671875,-20.01953125,-44.921875,-18.06640625,0.0,0
1586284762.9515936,1,1,36.1328125,-19.04296875,-44.43359375,2.9296875,0.0,0
1586284762.9555,1,1,18.5546875,-22.4609375,-42.96875,-4.39453125,0.0,0
1586284762.9594061,1,1,-52.734375,-14.6484375,-29.78515625,-39.55078125,0.0,0
1586284762.9633124,1,1,-86.42578125,-20.5078125,-40.52734375,-56.15234375,0.0,0
1586284762.9672186,1,1,-31.73828125,-26.85546875,-44.43359375,-13.18359375,0.0,0
1586284762.971125,1,1,33.69140625,-35.15625,-34.1796875,20.01953125,0.0,0
1586284762.9750311,1,1,27.34375,-39.55078125,-39.55078125,16.11328125,0.0,0
1586284762.9789374,1,1,-45.41015625,-38.0859375,-26.85546875,-18.06640625,0.0,0
1586284762.9828436,1,1,-83.49609375,-36.1328125,-26.3671875,-50.29296875,0.0,0
1586284762.98675,1,1,-37.59765625,-23.4375,-52.24609375,-34.1796875,0.0,0
1586284762.9906561,1,1,23.4375,-33.69140625,-47.36328125,1.953125,0.0,0
1586284762.9945624,1,1,18.5546875,-33.203125,-16.6015625,-0.9765625,0.0,0
1586284762.9984686,1,1,-46.875,-29.296875,-12.6953125,-36.62109375,0.0,0
1586284763.002375,1,1,-89.84375,-42.96875,-22.4609375,-61.03515625,0.0,0
1586284763.0062811,1,1,-54.6875,-24.4140625,-11.71875,-37.59765625,0.0,0
1586284763.0101874,1,1,21.97265625,-18.5546875,-4.39453125,13.18359375,0.0,0
1586284763.0140936,1,1,36.1328125,-34.1796875,-15.625,20.5078125,0.0,0
1586284763.018,1,1,-31.25,-44.921875,-28.3203125,-13.671875,0.0,0
1586284763.0219061,1,1,-79.58984375,-40.52734375,-23.92578125,-40.0390625,0.0,0
1586284763.0258124,1,1,-52.24609375,-49.31640625,-31.73828125,-26.3671875,0.0,0
1586284763.0297186,1,1,20.5078125,-45.41015625,-31.25,8.30078125,0.0,0
1586284763.033625,1,1,46.38671875,-19.04296875,-13.18359375,12.6953125,0.0,0
1586284763.0375311,1,1,-6.8359375,-19.04296875,-18.5546875,-19.53125,0.0,0
1586284763.0414374,1,1,-69.3359375,-31.25,-42.48046875,-51.7578125,0.0,0
1586284763.0453436,1,1,-58.59375,-34.66796875,-37.59765625,-44.43359375,0.0,0
1586284763.04925,1,1,16.6015625,-35.64453125,-16.11328125,-5.37109375,0.0,0
1586284763.0531561,1,1,49.8046875,-40.52734375,-26.3671875,11.23046875,0.0,0
1586284763.0570624,1,1,6.8359375,-31.25,-35.15625,-19.04296875,0.0,0
1586284763.0609686,1,1,-60.05859375,-18.06640625,-37.59765625,-64.94140625,0.0,0
1586284763.064875,1,1,-68.84765625,-21.484375,-36.62109375,-56.640625,0.0,0
1586284763.0687811,1,1,-8.30078125,-23.4375,-25.390625,-18.5546875,0.0,0
1586284763.0726874,1,1,31.25,-26.85546875,-38.0859375,-8.7890625,0.0,0
1586284763.0765936,1,1,-7.8125,-28.80859375,-50.78125,-20.5078125,0.0,0
1586284763.0805,1,1,-73.2421875,-25.390625,-36.62109375,-44.43359375,0.0,0
1586284763.0844061,1,1,-79.58984375,-34.66796875,-20.01953125,-43.45703125,0.0,0
1586284763.0883124,1,1,-14.6484375,-31.25,-15.625,-13.18359375,0.0,0
1586284763.0922186,1,1,33.69140625,-31.25,-29.78515625,5.37109375,0.0,0
1586284763.096125,1,1,0.48828125,-42.48046875,-37.59765625,-10.25390625,0.0,0
1586284763.1000311,1,1,-74.21875,-39.55078125,-35.64453125,-47.8515625,0.0,0
1586284763.1039374,1,1,-84.47265625,-29.78515625,-28.3203125,-54.19921875,0.0,0
1586284763.1078436,1,1,-20.01953125,-30.2734375,-19.53125,-12.6953125,0.0,0
1586284763.11175,1,1,33.203125,-31.73828125,-16.11328125,16.6015625,0.0,0
1586284763.1156561,1,1,9.27734375,-36.1328125,-28.3203125,0.0,0.0,0
1586284763.1195624,1,1,-54.19921875,-47.8515625,-32.71484375,-36.1328125,0.0,0
1586284763.1234686,1,1,-77.63671875,-55.6640625,-26.3671875,-53.7109375,0.0,0
1586284763.127375,1,1,-33.203125,-38.0859375,-37.109375,-21.97265625,0.0,0
1586284763.1312811,1,1,28.80859375,-21.97265625,-31.73828125,15.13671875,0.0,0
1586284763.1351874,1,1,22.94921875,-29.296875,-25.87890625,7.8125,0.0,0
1586284763.1390936,1,1,-56.15234375,-38.0859375,-29.296875,-34.1796875,0.0,0
1586284763.143,1,1,-97.65625,-41.9921875,-24.90234375,-60.546875,0.0,0
1586284763.1469061,1,1,-41.9921875,-35.15625,-26.85546875,-33.203125,0.0,0
1586284763.1508124,1,1,29.296875,-41.015625,-28.3203125,-3.90625,0.0,0
1586284763.1547186,1,1,31.25,-51.26953125,-27.34375,-2.9296875,0.0,0
1586284763.158625,1,1,-41.015625,-49.8046875,-35.64453125,-30.2734375,0.0,0
1586284763.1625311,1,1,-87.890625,-46.875,-51.26953125,-60.05859375,0.0,0
1586284763.1664374,1,1,-44.921875,-28.80859375,-41.015625,-37.109375,0.0,0
1586284763.1703436,1,1,25.390625,-21.484375,-20.99609375,16.6015625,0.0,0
1586284763.17425,1,1,36.62109375,-18.5546875,-24.4140625,20.5078125,0.0,0
1586284763.1781561,1,1,-27.34375,-19.53125,-27.83203125,-22.4609375,0.0,0
1586284763.1820624,1,1,-82.51953125,-28.80859375,-34.1796875,-49.31640625,0.0,0
1586284763.1859686,1,1,-61.5234375,-35.15625,-42.48046875,-38.57421875,0.0,0
1586284763.189875,1,1,11.23046875,-43.45703125,-39.55078125,6.8359375,0.0,0
1586284763.1937811,1,1,39.55078125,-41.50390625,-26.85546875,17.08984375,0.0,0
1586284763.1976874,1,1,-20.99609375,-30.76171875,-30.2734375,-28.3203125,0.0,0
1586284763.2015936,1,1,-79.58984375,-30.2734375,-27.34375,-56.15234375,0.0,0
1586284763.2055,1,1,-58.59375,-31.73828125,-29.78515625,-41.015625,0.0,0
1586284763.2094061,1,1,11.23046875,-19.53125,-30.2734375,-8.7890625,0.0,0
1586284763.2133124,1,1,40.52734375,-16.11328125,-25.390625,-1.46484375,0.0,0
1586284763.2172186,1,1,-15.625,-23.4375,-26.3671875,-27.83203125,0.0,0
1586284763.221125,1,1,-82.03125,-20.01953125,-21.484375,-59.5703125,0.0,0
1586284763.2250311,1,1,-77.63671875,-17.08984375,-29.296875,-56.640625,0.0,0
1586284763.2289374,1,1,-6.34765625,-34.1796875,-45.41015625,-13.671875,0.0,0
1586284763.2328436,1,1,36.1328125,-30.76171875,-38.0859375,18.5546875,0.0,0
1586284763.23675,1,1,-8.7890625,-21.484375,-25.87890625,-2.9296875,0.0,0
1586284763.2406561,1,1,-66.40625,-20.5078125,-23.92578125,-31.25,0.0,0
1586284763.2445624,1,1,-68.84765625,-24.90234375,-29.296875,-40.52734375,0.0,0
1586284763.2484686,1,1,-17.578125,-21.484375,-32.71484375,-9.27734375,0.0,0
1586284763.252375,1,1,28.3203125,-14.6484375,-34.1796875,24.4140625,0.0,0
1586284763.2562811,1,1,0.48828125,-19.04296875,-38.57421875,7.32421875,0.0,0
1586284763.2601874,1,1,-62.98828125,-23.4375,-24.90234375,-33.203125,0.0,0
1586284763.2640936,1,1,-75.1953125,-34.66796875,-27.34375,-48.33984375,0.0,0
1586284763.268,1,1,-11.71875,-38.57421875,-36.62109375,-23.92578125,0.0,0
1586284763.2719061,1,1,48.828125,-29.296875,-26.85546875,9.765625,0.0,0
1586284763.2758124,1,1,25.87890625,-14.16015625,-27.83203125,-3.90625,0.0,0
1586284763.2797186,1,1,-36.1328125,2.9296875,-24.4140625,-34.66796875,0.0,0
1586284763.283625,1,1,-56.15234375,-16.11328125,-31.25,-41.50390625,0.0,0
1586284763.2875311,1,1,-7.8125,-23.4375,-33.203125,-12.20703125,0.0,0
1586284763.2914374,1,1,48.828125,-8.7890625,-29.296875,23.92578125,0.0,0
1586284763.2953436,1,1,44.43359375,-9.27734375,-26.3671875,19.04296875,0.0,0
1586284763.29925,1,1,-20.5078125,-17.08984375,-20.99609375,-24.4140625,0.0,0
1586284763.3031561,1,1,-66.89453125,-17.578125,-26.85546875,-42.48046875,0.0,0
1586284763.3070624,1,1,-22.4609375,-20.01953125,-18.5546875,0.48828125,0.0,0
1586284763.3109686,1,1,44.43359375,-18.5546875,-9.765625,26.85546875,0.0,0
1586284763.314875,1,1,39.55078125,-5.37109375,-29.78515625,7.32421875,0.0,0
1586284763.3187811,1,1,-30.76171875,-9.27734375,-41.015625,-32.2265625,0.0,0
1586284763.3226874,1,1,-75.1953125,-14.16015625,-21.97265625,-56.640625,0.0,0
1586284763.3265936,1,1,-38.57421875,-6.8359375,-9.765625,-36.1328125,0.0,0
1586284763.3305,1,1,25.390625,-8.30078125,-25.390625,1.46484375,0.0,0
1586284763.3344061,1,1,32.2265625,-21.97265625,-34.66796875,5.859375,0.0,0
1586284763.3383124,1,1,-35.15625,-36.1328125,-31.73828125,-36.62109375,0.0,0
1586284763.3422186,1,1,-80.078125,-38.0859375,-26.85546875,-62.01171875,0.0,0
1586284763.346125,1,1,-39.55078125,-25.390625,-18.06640625,-45.8984375,0.0,0
1586284763.3500311,1,1,33.203125,-17.578125,-11.23046875,-4.8828125,0.0,0
1586284763.3539374,1,1,43.45703125,-13.18359375,-20.5078125,7.32421875,0.0,0
1586284763.3578436,1,1,-16.6015625,-16.11328125,-36.62109375,-27.34375,0.0,0
1586284763.36175,1,1,-72.265625,-27.83203125,-40.0390625,-59.08203125,0.0,0
1586284763.3656561,1,1,-56.15234375,-21.97265625,-32.71484375,-43.9453125,0.0,0
1586284763.3695624,1,1,17.08984375,-23.92578125,-30.2734375,2.9296875,0.0,0
1586284763.3734686,1,1,47.36328125,-37.109375,-34.66796875,17.08984375,0.0,0
1586284763.377375,1,1,0.0,-31.73828125,-29.78515625,-18.5546875,0.0,0
1586284763.3812811,1,1,-56.640625,-24.4140625,-21.484375,-53.22265625,0.0,0
1586284763.3851874,1,1,-48.828125,-25.87890625,-8.7890625,-42.48046875,0.0,0
1586284763.3890936,1,1,17.08984375,-23.4375,-16.6015625,-7.32421875,0.0,0
1586284763.393,1,1,44.43359375,-22.4609375,-36.62109375,10.25390625,0.0,0
1586284763.3969061,1,1,-0.9765625,-33.69140625,-30.2734375,-20.5078125,0.0,0
1586284763.4008124,1,1,-61.03515625,-34.1796875,-17.578125,-52.24609375,0.0,0
1586284763.4047186,1,1,-74.21875,-18.06640625,-20.5078125,-48.33984375,0.0,0
1586284763.408625,1,1,-12.6953125,-21.484375,-32.71484375,-10.7421875,0.0,0
1586284763.4125311,1,1,34.66796875,-30.76171875,-28.80859375,21.484375,0.0,0
1586284763.4164374,1,1,1.953125,-23.4375,-35.15625,2.44140625,0.0,0
1586284763.4203436,1,1,-62.5,-16.6015625,-25.87890625,-39.55078125,0.0,0
1586284763.42425,1,1,-79.58984375,-20.99609375,-15.625,-49.8046875,0.0,0
1586284763.4281561,1,1,-23.4375,-26.85546875,-21.97265625,-10.7421875,0.0,0
1586284763.4320624,1,1,33.203125,-22.94921875,-18.5546875,18.5546875,0.0,0
1586284763.4359686,1,1,11.71875,-19.04296875,-13.671875,-4.8828125,0.0,0
1586284763.439875,1,1,-50.29296875,-27.34375,-21.97265625,-41.015625,0.0,0
1586284763.4437811,1,1,-66.40625,-26.85546875,-16.6015625,-41.015625,0.0,0
1586284763.4476874,1,1,-11.23046875,-13.671875,-12.6953125,-10.7421875,0.0,0
1586284763.4515936,1,1,46.875,-16.11328125,-22.94921875,16.6015625,0.0,0
1586284763.4555,1,1,31.73828125,-27.34375,-24.4140625,4.8828125,0.0,0
1586284763.4594061,1,1,-36.62109375,-24.90234375,-24.90234375,-39.0625,0.0,0
1586284763.4633124,1,1,-69.3359375,-24.90234375,-28.80859375,-52.24609375,0.0,0
1586284763.4672186,1,1,-21.484375,-20.01953125,-28.80859375,-23.92578125,0.0,0
1586284763.471125,1,1,41.9921875,-10.25390625,-31.73828125,8.7890625,0.0,0
1586284763.4750311,1,1,33.69140625,-12.6953125,-34.1796875,6.34765625,0.0,0
1586284763.4789374,1,1,-39.0625,-20.01953125,-22.94921875,-31.73828125,0.0,0
1586284763.4828436,1,1,-84.9609375,-22.94921875,-28.80859375,-52.24609375,0.0,0
1586284763.48675,1,1,-49.8046875,-15.625,-36.1328125,-30.76171875,0.0,0
1586284763.4906561,1,1,21.97265625,-19.53125,-36.62109375,10.25390625,0.0,0
1586284763.4945624,1,1,40.0390625,-23.4375,-27.34375,18.5546875,0.0,0
1586284763.4984686,1,1,-19.04296875,-11.23046875,-21.97265625,-26.85546875,0.0,0
1586284763.502375,1,1,-70.3125,-8.30078125,-27.83203125,-54.19921875,0.0,0
1586284763.5062811,1,1,-40.52734375,-9.765625,-26.3671875,-30.2734375,0.0,0
1586284763.5101874,1,1,23.92578125,-9.27734375,-23.92578125,7.32421875,0.0,0
1586284763.5140936,1,1,32.71484375,-15.625,-20.5078125,15.13671875,0.0,0
1586284763.518,1,1,-28.80859375,-23.92578125,-27.34375,-23.92578125,0.0,0
1586284763.5219061,1,1,-91.796875,-26.3671875,-41.015625,-63.4765625,0.0,0
1586284763.5258124,1,1,-69.3359375,-20.01953125,-35.15625,-45.41015625,0.0,0
1586284763.5297186,1,1,5.859375,-11.23046875,-23.92578125,6.8359375,0.0,0
1586284763.533625,1,1,29.78515625,-18.06640625,-20.01953125,19.53125,0.0,0
1586284763.5375311,1,1,-23.92578125,-24.90234375,-33.69140625,-19.04296875,0.0,0
1586284763.5414374,1,1,-88.37890625,-22.94921875,-41.50390625,-62.98828125,0.0,0
1586284763.5453436,1,1,-79.1015625,-20.99609375,-39.55078125,-54.6875,0.0,0
1586284763.54925,1,1,-8.7890625,-15.13671875,-33.203125,-15.13671875,0.0,0
1586284763.5531561,1,1,27.34375,-17.08984375,-22.4609375,0.0,0.0,0
1586284763.5570624,1,1,-13.671875,-15.625,-27.34375,-25.87890625,0.0,0
1586284763.5609686,1,1,-74.70703125,-15.13671875,-36.62109375,-70.3125,0.0,0
1586284763.564875,1,1,-69.3359375,-15.13671875,-32.2265625,-66.40625,0.0,0
1586284763.5687811,1,1,-2.9296875,-10.25390625,-29.78515625,-39.55078125,0.0,0
1586284763.5726874,1,1,41.9921875,-13.671875,-24.4140625,-16.11328125,0.0,0
1586284763.5765936,1,1,12.6953125,-17.08984375,-22.4609375,-21.484375,0.0,0
1586284763.5805,1,1,-52.734375,-17.578125,-28.3203125,-57.12890625,0.0,0
1586284763.5844061,1,1,-75.68359375,-22.94921875,-25.87890625,-55.6640625,0.0,0
1586284763.5883124,1,1,-19.53125,-24.90234375,-29.78515625,-6.34765625,0.0,0
1586284763.5922186,1,1,31.73828125,-29.296875,-22.94921875,32.2265625,0.0,0
1586284763.596125,1,1,-2.44140625,-30.2734375,-10.7421875,11.71875,0.0,0
1586284763.6000311,1,1,-61.5234375,-21.97265625,-11.23046875,-18.5546875,0.0,0
1586284763.6039374,1,1,-71.77734375,-23.4375,-19.04296875,-35.64453125,0.0,0
1586284763.6078436,1,1,-18.06640625,-26.85546875,-26.3671875,-16.11328125,0.0,0
1586284763.61175,1,1,39.55078125,-18.5546875,-32.2265625,19.04296875,0.0,0
1586284763.6156561,1,1,25.87890625,-10.25390625,-36.1328125,8.30078125,0.0,0
1586284763.6195624,1,1,-37.59765625,-18.06640625,-15.13671875,-35.15625,0.0,0
1586284763.6234686,1,1,-68.84765625,-30.2734375,10.25390625,-50.29296875,0.0,0
1586284763.627375,1,1,-17.578125,-28.3203125,-3.41796875,-17.578125,0.0,0
1586284763.6312811,1,1,47.8515625,-21.484375,-19.53125,14.16015625,0.0,0
1586284763.6351874,1,1,40.52734375,-10.25390625,-9.765625,19.53125,0.0,0
1586284763.6390936,1,1,-25.87890625,-17.578125,-2.9296875,-8.30078125,0.0,0
1586284763.643,1,1,-65.4296875,-17.08984375,-3.41796875,-42.48046875,0.0,0
1586284763.6469061,1,1,-27.83203125,-17.578125,-16.6015625,-25.390625,0.0,0
1586284763.6508124,1,1,38.0859375,-26.3671875,-34.1796875,8.7890625,0.0,0
1586284763.6547186,1,1,41.9921875,-21.484375,-34.66796875,5.859375,0.0,0
1586284763.658625,1,1,-28.3203125,-16.11328125,-39.55078125,-32.2265625,0.0,0
1586284763.6625311,1,1,-76.171875,-10.25390625,-32.2265625,-60.05859375,0.0,0
1586284763.6664374,1,1,-41.9921875,-28.3203125,-19.53125,-35.64453125,0.0,0
1586284763.6703436,1,1,25.390625,-40.0390625,-26.3671875,7.32421875,0.0,0
1586284763.67425,1,1,36.62109375,-27.34375,-15.13671875,23.92578125,0.0,0
1586284763.6781561,1,1,-20.99609375,-19.04296875,-12.20703125,-5.859375,0.0,0
1586284763.6820624,1,1,-78.125,-23.4375,-45.41015625,-50.78125,0.0,0
1586284763.6859686,1,1,-61.5234375,-35.15625,-54.19921875,-46.38671875,0.0,0
1586284763.689875,1,1,14.16015625,-41.015625,-51.7578125,-6.8359375,0.0,0
1586284763.6937811,1,1,42.48046875,-30.76171875,-54.19921875,12.6953125,0.0,0
1586284763.6976874,1,1,-13.671875,-24.90234375,-39.0625,-8.30078125,0.0,0
1586284763.7015936,1,1,-83.0078125,-31.73828125,-35.15625,-51.26953125,0.0,0
1586284763.7055,1,1,-66.89453125,-30.76171875,-30.2734375,-49.8046875,0.0,0
1586284763.7094061,1,1,16.11328125,-22.94921875,-21.484375,-4.8828125,0.0,0
1586284763.7133124,1,1,48.828125,-17.578125,-29.78515625,10.7421875,0.0,0
1586284763.7172186,1,1,0.9765625,-9.27734375,-25.87890625,-12.6953125,0.0,0
1586284763.721125,1,1,-58.10546875,-5.859375,-28.80859375,-50.78125,0.0,0
1586284763.7250311,1,1,-61.03515625,-25.87890625,-47.8515625,-49.31640625,0.0,0
1586284763.7289374,1,1,3.90625,-31.73828125,-52.734375,-2.44140625,0.0,0
1586284763.7328436,1,1,51.7578125,-15.625,-47.36328125,18.5546875,0.0,0
1586284763.73675,1,1,7.32421875,-15.13671875,-40.52734375,-2.9296875,0.0,0
1586284763.7406561,1,1,-69.82421875,-16.11328125,-23.4375,-37.109375,0.0,0
1586284763.7445624,1,1,-76.171875,-15.13671875,-20.01953125,-44.43359375,0.0,0
1586284763.7484686,1,1,-17.578125,-23.4375,-26.85546875,-13.18359375,0.0,0
1586284763.752375,1,1,27.34375,-30.76171875,-26.3671875,12.20703125,0.0,0
1586284763.7562811,1,1,2.44140625,-16.6015625,-34.1796875,-2.44140625,0.0,0
1586284763.7601874,1,1,-59.5703125,-15.625,-33.203125,-40.52734375,0.0,0
1586284763.7640936,1,1,-72.265625,-21.484375,-44.921875,-54.6875,0.0,0
1586284763.768,1,1,-9.765625,-15.13671875,-41.50390625,-16.6015625,0.0,0
1586284763.7719061,1,1,41.015625,-14.6484375,-20.5078125,16.11328125,0.0,0
1586284763.7758124,1,1,21.484375,-13.18359375,-32.2265625,-1.46484375,0.0,0
1586284763.7797186,1,1,-47.36328125,-14.6484375,-37.109375,-39.55078125,0.0,0
1586284763.783625,1,1,-82.03125,-11.23046875,-27.83203125,-48.828125,0.0,0
1586284763.7875311,1,1,-28.80859375,-15.625,-30.2734375,-11.23046875,0.0,0
1586284763.7914374,1,1,41.9921875,-12.6953125,-33.203125,19.53125,0.0,0
1586284763.7953436,1,1,33.203125,-11.71875,-17.578125,7.32421875,0.0,0
1586284763.79925,1,1,-38.0859375,-22.94921875,-29.296875,-22.4609375,0.0,0
1586284763.8031561,1,1,-80.078125,-20.5078125,-49.8046875,-37.109375,0.0,0
1586284763.8070624,1,1,-42.48046875,-29.78515625,-36.62109375,-17.08984375,0.0,0
1586284763.8109686,1,1,29.78515625,-39.55078125,-40.52734375,13.671875,0.0,0
1586284763.814875,1,1,40.0390625,-33.203125,-48.33984375,16.11328125,0.0,0
1586284763.8187811,1,1,-25.87890625,-29.78515625,-39.0625,-20.5078125,0.0,0
1586284763.8226874,1,1,-72.265625,-18.5546875,-28.80859375,-43.45703125,0.0,0
1586284763.8265936,1,1,-39.0625,-15.625,-29.296875,-20.99609375,0.0,0
1586284763.8305,1,1,32.71484375,-22.94921875,-35.15625,15.13671875,0.0,0
1586284763.8344061,1,1,46.38671875,-20.5078125,-28.80859375,19.53125,0.0,0
1586284763.8383124,1,1,-30.76171875,-14.6484375,-42.48046875,-26.3671875,0.0,0
1586284763.8422186,1,1,-89.84375,-21.484375,-60.546875,-55.6640625,0.0,0
1586284763.846125,1,1,-62.01171875,-26.3671875,-47.36328125,-34.1796875,0.0,0
1586284763.8500311,1,1,4.39453125,-32.2265625,-25.87890625,-1.953125,0.0,0
1586284763.8539374,1,1,35.15625,-25.390625,-32.71484375,5.859375,0.0,0
1586284763.8578436,1,1,-16.6015625,-18.06640625,-36.62109375,-16.6015625,0.0,0
1586284763.86175,1,1,-72.75390625,-21.484375,-27.34375,-48.33984375,0.0,0
1586284763.8656561,1,1,-52.24609375,-16.11328125,-34.66796875,-39.55078125,0.0,0
1586284763.8695624,1,1,-4.39453125,-27.83203125,-37.59765625,1.953125,0.0,0
1586284763.8734686,1,1,38.57421875,-25.87890625,-29.78515625,16.11328125,0.0,0
1586284763.877375,1,1,11.71875,-11.71875,-23.92578125,-9.27734375,0.0,0
1586284763.8812811,1,1,-63.96484375,-20.99609375,-24.4140625,-48.33984375,0.0,0
1586284763.8851874,1,1,-65.4296875,-19.53125,-22.4609375,-50.78125,0.0,0
1586284763.8890936,1,1,-4.8828125,-21.97265625,-30.2734375,-6.8359375,0.0,0
1586284763.893,1,1,36.62109375,-26.3671875,-40.52734375,23.4375,0.0,0
1586284763.8969061,1,1,-8.30078125,-18.06640625,-45.41015625,0.48828125,0.0,0
1586284763.9008124,1,1,-75.68359375,-17.578125,-40.0390625,-41.015625,0.0,0
1586284763.9047186,1,1,-73.2421875,-24.90234375,-37.109375,-44.43359375,0.0,0
1586284763.908625,1,1,-8.7890625,-17.578125,-50.29296875,-14.6484375,0.0,0
1586284763.9125311,1,1,36.1328125,-14.16015625,-45.41015625,8.30078125,0.0,0
1586284763.9164374,1,1,-2.44140625,-24.4140625,-40.0390625,-17.578125,0.0,0
1586284763.9203436,1,1,-76.66015625,-24.4140625,-52.24609375,-54.19921875,0.0,0
1586284763.92425,1,1,-94.23828125,-20.99609375,-55.6640625,-72.265625,0.0,0
1586284763.9281561,1,1,-36.62109375,-22.94921875,-55.17578125,-51.7578125,0.0,0
1586284763.9320624,1,1,27.34375,-23.4375,-42.96875,-9.27734375,0.0,0
1586284763.9359686,1,1,5.859375,-21.97265625,-34.66796875,-13.18359375,0.0,0
1586284763.939875,1,1,-65.91796875,-28.3203125,-38.57421875,-37.59765625,0.0,0
1586284763.9437811,1,1,-84.9609375,-26.85546875,-37.109375,-49.8046875,0.0,0
1586284763.9476874,1,1,-29.78515625,-18.5546875,-33.203125,-20.99609375,0.0,0
1586284763.9515936,1,1,33.69140625,-11.71875,-34.66796875,22.4609375,0.0,0
1586284763.9555,1,1,25.87890625,-12.6953125,-39.55078125,18.5546875,0.0,0
1586284763.9594061,1,1,-61.5234375,-25.390625,-30.76171875,-20.01953125,0.0,0
1586284763.9633124,1,1,-98.14453125,-29.296875,-26.3671875,-42.48046875,0.0,0
1586284763.9672186,1,1,-38.57421875,-24.90234375,-38.57421875,-20.5078125,0.0,0
1586284763.971125,1,1,26.85546875,-21.484375,-36.62109375,14.6484375,0.0,0
1586284763.9750311,1,1,34.1796875,-13.671875,-24.90234375,3.41796875,0.0,0
1586284763.9789374,1,1,-31.73828125,-19.53125,-19.04296875,-34.1796875,0.0,0
1586284763.9828436,1,1,-77.63671875,-20.5078125,-26.85546875,-54.19921875,0.0,0
1586284763.98675,1,1,-35.15625,-11.71875,-35.15625,-41.9921875,0.0,0
1586284763.9906561,1,1,24.4140625,-6.8359375,-39.0625,-9.765625,0.0,0
1586284763.9945624,1,1,16.11328125,-15.13671875,-52.24609375,-6.34765625,0.0,0
1586284763.9984686,1,1,-34.1796875,-24.90234375,-41.9921875,-34.1796875,0.0,0
1586284764.002375,1,1,-76.66015625,-12.20703125,-32.71484375,-45.41015625,0.0,0
1586284764.0062811,1,1,-58.59375,-13.671875,-36.1328125,-31.25,0.0,0
1586284764.0101874,1,1,6.34765625,-29.78515625,-38.57421875,-2.44140625,0.0,0
1586284764.0140936,1,1,30.76171875,-27.83203125,-36.1328125,16.11328125,0.0,0
1586284764.018,1,1,-14.16015625,-20.01953125,-26.85546875,-22.94921875,0.0,0
1586284764.0219061,1,1,-71.77734375,-15.13671875,-22.94921875,-56.640625,0.0,0
1586284764.0258124,1,1,-57.6171875,-21.97265625,-27.83203125,-41.015625,0.0,0
1586284764.0297186,1,1,-2.44140625,-39.55078125,-35.64453125,-3.90625,0.0,0
1586284764.033625,1,1,37.59765625,-28.3203125,-28.3203125,15.625,0.0,0
1586284764.0375311,1,1,15.625,-16.11328125,-12.20703125,-9.27734375,0.0,0
1586284764.0414374,1,1,-65.4296875,-18.06640625,-22.4609375,-41.9921875,0.0,0
1586284764.0453436,1,1,-65.4296875,-21.97265625,-41.015625,-34.66796875,0.0,0
1586284764.04925,1,1,-0.48828125,-39.0625,-41.50390625,1.953125,0.0,0
1586284764.0531561,1,1,33.69140625,-31.25,-34.1796875,16.6015625,0.0,0
1586284764.0570624,1,1,0.0,-24.90234375,-32.71484375,-3.90625,0.0,0
1586284764.0609686,1,1,-69.82421875,-32.2265625,-24.4140625,-42.96875,0.0,0
1586284764.064875,1,1,-72.75390625,-24.4140625,-38.57421875,-57.6171875,0.0,0
1586284764.0687811,1,1,-3.41796875,-23.92578125,-47.8515625,-18.5546875,0.0,0
1586284764.0726874,1,1,37.59765625,-27.34375,-28.3203125,15.13671875,0.0,0
1586284764.0765936,1,1,4.8828125,-9.765625,-16.11328125,-5.37109375,0.0,0
1586284764.0805,1,1,-62.98828125,-8.7890625,-13.18359375,-50.29296875,0.0,0
1586284764.0844061,1,1,-82.51953125,-21.97265625,-21.484375,-55.17578125,0.0,0
1586284764.0883124,1,1,-11.71875,-16.11328125,-36.62109375,-16.6015625,0.0,0
1586284764.0922186,1,1,45.41015625,-18.06640625,-39.0625,11.71875,0.0,0
1586284764.096125,1,1,15.625,-24.4140625,-34.1796875,-11.71875,0.0,0
1586284764.1000311,1,1,-55.6640625,-27.83203125,-40.0390625,-52.24609375,0.0,0
1586284764.1039374,1,1,-80.078125,-25.390625,-42.96875,-63.4765625,0.0,0
1586284764.1078436,1,1,-38.0859375,-27.83203125,-38.0859375,-39.0625,0.0,0
1586284764.11175,1,1,22.4609375,-41.50390625,-30.76171875,-5.859375,0.0,0
1586284764.1156561,1,1,27.34375,-33.203125,-26.85546875,-8.30078125,0.0,0
1586284764.1195624,1,1,-46.875,-18.5546875,-19.04296875,-39.55078125,0.0,0
1586284764.1234686,1,1,-85.44921875,-11.71875,-25.390625,-60.05859375,0.0,0
1586284764.127375,1,1,-55.6640625,-22.94921875,-35.15625,-44.921875,0.0,0
1586284764.1312811,1,1,6.8359375,-25.87890625,-35.64453125,-14.16015625,0.0,0
1586284764.1351874,1,1,20.99609375,-21.484375,-36.62109375,-3.90625,0.0,0
1586284764.1390936,1,1,-43.45703125,-32.71484375,-36.62109375,-33.203125,0.0,0
1586284764.143,1,1,-88.8671875,-35.15625,-34.1796875,-58.10546875,0.0,0
1586284764.1469061,1,1,-59.5703125,-30.2734375,-32.2265625,-36.1328125,0.0,0
1586284764.1508124,1,1,5.37109375,-40.0390625,-30.2734375,-11.71875,0.0,0
1586284764.1547186,1,1,20.01953125,-40.52734375,-14.16015625,-6.34765625,0.0,0
1586284764.158625,1,1,-40.0390625,-28.80859375,-17.08984375,-27.83203125,0.0,0
1586284764.1625311,1,1,-87.40234375,-24.4140625,-26.3671875,-48.828125,0.0,0
1586284764.1664374,1,1,-57.6171875,-22.94921875,-33.203125,-37.109375,0.0,0
1586284764.1703436,1,1,14.6484375,-26.85546875,-41.50390625,-11.71875,0.0,0
1586284764.17425,1,1,32.71484375,-24.90234375,-38.57421875,3.41796875,0.0,0
1586284764.1781561,1,1,-19.53125,-25.390625,-35.15625,-24.90234375,0.0,0
1586284764.1820624,1,1,-72.265625,-24.90234375,-25.87890625,-58.10546875,0.0,0
1586284764.1859686,1,1,-50.29296875,-22.94921875,-25.87890625,-42.96875,0.0,0
1586284764.189875,1,1,11.71875,-23.4375,-33.203125,-4.8828125,0.0,0
1586284764.1937811,1,1,31.73828125,-26.85546875,-35.15625,9.765625,0.0,0
1586284764.1976874,1,1,0.9765625,-31.25,-37.109375,-18.06640625,0.0,0
1586284764.2015936,1,1,-48.828125,-30.76171875,-41.015625,-56.15234375,0.0,0
1586284764.2055,1,1,-50.78125,-30.76171875,-35.64453125,-44.43359375,0.0,0
1586284764.2094061,1,1,5.37109375,-27.83203125,-35.15625,4.8828125,0.0,0
1586284764.2133124,1,1,37.59765625,-17.08984375,-27.83203125,11.23046875,0.0,0
1586284764.2172186,1,1,-8.30078125,-21.484375,-18.5546875,-12.6953125,0.0,0
1586284764.221125,1,1,-69.3359375,-26.85546875,-36.62109375,-36.1328125,0.0,0
1586284764.2250311,1,1,-68.84765625,-20.5078125,-43.45703125,-39.55078125,0.0,0
1586284764.2289374,1,1,-11.71875,-26.85546875,-40.0390625,-12.20703125,0.0,0
1586284764.2328436,1,1,36.62109375,-18.5546875,-37.59765625,4.8828125,0.0,0
1586284764.23675,1,1,11.71875,-12.6953125,-22.4609375,-25.390625,0.0,0
1586284764.2406561,1,1,-62.01171875,-30.76171875,-26.3671875,-56.640625,0.0,0
1586284764.2445624,1,1,-93.75,-26.85546875,-28.3203125,-51.7578125,0.0,0
1586284764.2484686,1,1,-34.1796875,-15.625,-30.2734375,-26.3671875,0.0,0
1586284764.252375,1,1,53.7109375,-11.71875,-41.9921875,6.8359375,0.0,0
1586284764.2562811,1,1,30.2734375,-15.625,-48.828125,-4.8828125,0.0,0
1586284764.2601874,1,1,-59.5703125,-19.53125,-42.48046875,-50.78125,0.0,0
1586284764.2640936,1,1,-81.54296875,-22.94921875,-27.83203125,-47.8515625,0.0,0
1586284764.268,1,1,-10.25390625,-26.85546875,-18.5546875,0.9765625,0.0,0
1586284764.2719061,1,1,47.8515625,-25.87890625,-20.5078125,23.92578125,0.0,0
1586284764.2758124,1,1,26.85546875,-22.4609375,-33.69140625,-2.9296875,0.0,0
1586284764.2797186,1,1,-40.0390625,-21.97265625,-32.71484375,-34.1796875,0.0,0
1586284764.283625,1,1,-67.87109375,-26.85546875,-28.3203125,-38.0859375,0.0,0
1586284764.2875311,1,1,-20.5078125,-30.2734375,-20.99609375,-11.23046875,0.0,0
1586284764.2914374,1,1,41.015625,-40.0390625,-17.578125,22.94921875,0.0,0
1586284764.2953436,1,1,37.59765625,-45.41015625,-28.3203125,20.5078125,0.0,0
1586284764.29925,1,1,-34.1796875,-29.296875,-29.78515625,-20.5078125,0.0,0
1586284764.3031561,1,1,-82.51953125,-20.01953125,-21.484375,-48.828125,0.0,0
1586284764.3070624,1,1,-34.1796875,-26.3671875,-15.13671875,-18.5546875,0.0,0
1586284764.3109686,1,1,22.4609375,-21.484375,-17.08984375,23.92578125,0.0,0
1586284764.314875,1,1,23.92578125,-22.4609375,-18.06640625,17.578125,0.0,0
1586284764.3187811,1,1,-13.18359375,-33.203125,-24.4140625,-18.06640625,0.0,0
1586284764.3226874,1,1,-57.12890625,-35.64453125,-37.109375,-37.109375,0.0,0
1586284764.3265936,1,1,-29.296875,-35.64453125,-43.9453125,-17.578125,0.0,0
1586284764.3305,1,1,46.38671875,-30.76171875,-35.64453125,20.01953125,0.0,0
1586284764.3344061,1,1,58.59375,-27.83203125,-24.90234375,20.5078125,0.0,0
1586284764.3383124,1,1,-6.8359375,-36.1328125,-38.0859375,-23.4375,0.0,0
1586284764.3422186,1,1,-60.05859375,-41.015625,-44.43359375,-42.96875,0.0,0
1586284764.346125,1,1,-36.62109375,-31.25,-20.01953125,-23.4375,0.0,0
1586284764.3500311,1,1,37.109375,-17.578125,-11.23046875,11.71875,0.0,0
1586284764.3539374,1,1,61.03515625,-16.6015625,-20.99609375,23.4375,0.0,0
1586284764.3578436,1,1,-0.9765625,-20.99609375,-30.2734375,-7.8125,0.0,0
1586284764.36175,1,1,-67.87109375,-19.04296875,-34.66796875,-33.69140625,0.0,0
1586284764.3656561,1,1,-56.640625,-30.2734375,-38.57421875,-26.85546875,0.0,0
1586284764.3695624,1,1,12.6953125,-35.15625,-31.73828125,3.90625,0.0,0
1586284764.3734686,1,1,48.33984375,-24.4140625,-21.484375,22.94921875,0.0,0
1586284764.377375,1,1,8.30078125,-16.11328125,-20.01953125,-0.9765625,0.0,0
1586284764.3812811,1,1,-56.15234375,-18.06640625,-18.06640625,-39.0625,0.0,0
1586284764.3851874,1,1,-72.75390625,-25.390625,-16.11328125,-27.83203125,0.0,0
1586284764.3890936,1,1,1.953125,-31.25,-20.5078125,12.6953125,0.0,0
1586284764.393,1,1,66.40625,-37.109375,-30.76171875,20.5078125,0.0,0
1586284764.3969061,1,1,29.296875,-27.83203125,-31.25,-4.39453125,0.0,0
1586284764.4008124,1,1,-47.36328125,-16.6015625,-34.66796875,-42.48046875,0.0,0
1586284764.4047186,1,1,-65.4296875,-21.97265625,-38.0859375,-43.9453125,0.0,0
1586284764.408625,1,1,-7.32421875,-34.1796875,-40.0390625,-10.7421875,0.0,0
1586284764.4125311,1,1,49.8046875,-20.99609375,-32.71484375,9.765625,0.0,0
1586284764.4164374,1,1,20.01953125,-16.11328125,-29.78515625,-4.8828125,0.0,0
1586284764.4203436,1,1,-57.12890625,-39.55078125,-38.57421875,-33.69140625,0.0,0
1586284764.42425,1,1,-72.75390625,-41.50390625,-49.31640625,-37.59765625,0.0,0
1586284764.4281561,1,1,-16.6015625,-26.3671875,-47.8515625,-11.23046875,0.0,0
1586284764.4320624,1,1,40.52734375,-16.11328125,-41.015625,20.99609375,0.0,0
1586284764.4359686,1,1,27.83203125,-15.625,-32.2265625,23.92578125,0.0,0
1586284764.439875,1,1,-46.38671875,-25.87890625,-18.06640625,-29.296875,0.0,0
1586284764.4437811,1,1,-69.82421875,-29.296875,-16.6015625,-51.7578125,0.0,0
1586284764.4476874,1,1,-24.4140625,-29.296875,-24.4140625,-16.6015625,0.0,0
1586284764.4515936,1,1,31.25,-30.76171875,-31.73828125,7.32421875,0.0,0
1586284764.4555,1,1,31.73828125,-24.90234375,-41.50390625,-3.90625,0.0,0
1586284764.4594061,1,1,-33.69140625,-15.13671875,-29.78515625,-42.96875,0.0,0
1586284764.4633124,1,1,-77.63671875,-28.3203125,-20.01953125,-61.03515625,0.0,0
1586284764.4672186,1,1,-46.38671875,-32.71484375,-35.15625,-32.71484375,0.0,0
1586284764.471125,1,1,24.90234375,-14.16015625,-41.9921875,6.34765625,0.0,0
1586284764.4750311,1,1,30.76171875,-10.7421875,-39.55078125,15.13671875,0.0,0
1586284764.4789374,1,1,-43.9453125,-23.92578125,-44.43359375,-19.53125,0.0,0
1586284764.4828436,1,1,-92.7734375,-28.3203125,-32.2265625,-46.875,0.0,0
1586284764.48675,1,1,-51.26953125,-27.83203125,-22.94921875,-26.3671875,0.0,0
1586284764.4906561,1,1,21.97265625,-30.2734375,-19.53125,4.39453125,0.0,0
1586284764.4945624,1,1,41.50390625,-20.5078125,-17.08984375,18.06640625,0.0,0
1586284764.4984686,1,1,-16.6015625,-14.16015625,-38.57421875,-7.8125,0.0,0
1586284764.502375,2,2,-89.35546875,-17.08984375,-41.50390625,-39.0625,0.0,0
1586284764.5062811,2,2,-72.75390625,-20.5078125,-38.57421875,-35.64453125,0.0,0
1586284764.5101874,2,2,21.484375,-25.390625,-51.26953125,-6.34765625,0.0,0
1586284764.5140936,2,2,51.26953125,-20.01953125,-57.6171875,6.34765625,0.0,0
1586284764.518,2,2,-6.8359375,-17.578125,-49.8046875,-21.484375,0.0,0
1586284764.5219061,2,2,-71.77734375,-23.92578125,-43.45703125,-53.22265625,0.0,0
1586284764.5258124,2,2,-76.66015625,-33.203125,-43.45703125,-47.8515625,0.0,0
1586284764.5297186,2,2,-7.32421875,-43.9453125,-36.62109375,-6.8359375,0.0,0
1586284764.533625,2,2,31.25,-37.59765625,-29.78515625,8.30078125,0.0,0
1586284764.5375311,2,2,-15.13671875,-35.64453125,-34.1796875,-9.27734375,0.0,0
1586284764.5414374,2,2,-72.265625,-35.15625,-39.0625,-44.921875,0.0,0
1586284764.5453436,2,2,-72.75390625,-28.80859375,-38.0859375,-52.734375,0.0,0
1586284764.54925,2,2,-11.71875,-38.57421875,-38.57421875,-13.18359375,0.0,0
1586284764.5531561,2,2,33.69140625,-32.2265625,-38.0859375,13.671875,0.0,0
1586284764.5570624,2,2,-0.9765625,-14.6484375,-28.3203125,-12.6953125,0.0,0
1586284764.5609686,2,2,-71.2890625,-33.69140625,-39.55078125,-58.10546875,0.0,0
1586284764.564875,2,2,-76.171875,-41.015625,-41.9921875,-49.31640625,0.0,0
1586284764.5687811,2,2,-5.37109375,-27.83203125,-36.1328125,-10.25390625,0.0,0
1586284764.5726874,2,2,42.96875,-28.3203125,-52.734375,9.765625,0.0,0
1586284764.5765936,2,2,-0.48828125,-19.53125,-43.9453125,-1.46484375,0.0,0
1586284764.5805,2,2,-64.453125,-31.25,-29.78515625,-33.203125,0.0,0
1586284764.5844061,2,2,-67.87109375,-41.9921875,-25.390625,-41.015625,0.0,0
1586284764.5883124,2,2,-8.7890625,-28.3203125,-21.97265625,-20.01953125,0.0,0
1586284764.5922186,2,2,43.9453125,-25.87890625,-26.3671875,10.7421875,0.0,0
1586284764.596125,2,2,21.97265625,-25.87890625,-35.15625,7.8125,0.0,0
1586284764.6000311,2,2,-54.6875,-31.73828125,-33.69140625,-31.73828125,0.0,0
1586284764.6039374,2,2,-89.35546875,-43.45703125,-27.83203125,-53.7109375,0.0,0
1586284764.6078436,2,2,-33.203125,-32.71484375,-31.25,-28.80859375,0.0,0
1586284764.61175,2,2,32.71484375,-21.484375,-32.71484375,13.18359375,0.0,0
1586284764.6156561,2,2,19.53125,-23.4375,-27.83203125,13.18359375,0.0,0
1586284764.6195624,2,2,-58.59375,-27.83203125,-32.71484375,-22.94921875,0.0,0
1586284764.6234686,2,2,-97.16796875,-35.64453125,-39.55078125,-52.24609375,0.0,0
1586284764.627375,2,2,-38.57421875,-37.59765625,-41.9921875,-22.94921875,0.0,0
1586284764.6312811,2,2,21.97265625,-32.2265625,-48.33984375,18.5546875,0.0,0
1586284764.6351874,2,2,21.484375,-35.64453125,-41.015625,11.23046875,0.0,0
1586284764.6390936,2,2,-30.2734375,-38.0859375,-34.1796875,-29.78515625,0.0,0
1586284764.643,2,2,-79.58984375,-29.78515625,-43.9453125,-57.12890625,0.0,0
1586284764.6469061,2,2,-46.38671875,-18.5546875,-37.109375,-34.1796875,0.0,0
1586284764.6508124,2,2,19.04296875,-25.87890625,-34.66796875,0.48828125,0.0,0
1586284764.6547186,2,2,28.3203125,-35.15625,-29.296875,2.44140625,0.0,0
1586284764.658625,2,2,-28.80859375,-36.1328125,-20.5078125,-24.90234375,0.0,0
1586284764.6625311,2,2,-78.125,-33.203125,-26.3671875,-50.78125,0.0,0
1586284764.6664374,2,2,-49.31640625,-20.99609375,-36.1328125,-40.0390625,0.0,0
1586284764.6703436,2,2,5.859375,-18.06640625,-35.15625,-1.46484375,0.0,0
1586284764.67425,2,2,33.69140625,-21.97265625,-29.78515625,9.765625,0.0,0
1586284764.6781561,2,2,-5.859375,-22.94921875,-30.76171875,-29.78515625,0.0,0
1586284764.6820624,2,2,-80.078125,-22.4609375,-42.48046875,-71.2890625,0.0,0
1586284764.6859686,2,2,-73.73046875,-22.4609375,-48.33984375,-58.59375,0.0,0
1586284764.689875,2,2,-6.34765625,-20.99609375,-32.2265625,-15.13671875,0.0,0
1586284764.6937811,2,2,16.11328125,-19.53125,-34.1796875,-5.37109375,0.0,0
1586284764.6976874,2,2,-33.69140625,-28.3203125,-41.50390625,-35.64453125,0.0,0
1586284764.7015936,2,2,-90.33203125,-36.1328125,-41.9921875,-62.01171875,0.0,0
1586284764.7055,2,2,-85.9375,-33.203125,-42.48046875,-59.08203125,0.0,0
1586284764.7094061,2,2,-9.27734375,-35.64453125,-40.52734375,-15.13671875,0.0,0
1586284764.7133124,2,2,40.52734375,-41.50390625,-36.62109375,7.8125,0.0,0
1586284764.7172186,2,2,7.8125,-34.1796875,-26.85546875,-23.4375,0.0,0
1586284764.721125,2,2,-75.68359375,-21.97265625,-19.53125,-57.6171875,0.0,0
1586284764.7250311,2,2,-86.9140625,-20.01953125,-21.484375,-57.6171875,0.0,0
1586284764.7289374,2,2,-0.48828125,-33.69140625,-33.203125,-13.671875,0.0,0
1586284764.7328436,2,2,43.45703125,-41.9921875,-38.0859375,16.11328125,0.0,0
1586284764.73675,2,2,17.578125,-22.94921875,-33.69140625,-0.48828125,0.0,0
1586284764.7406561,2,2,-50.78125,-10.25390625,-37.59765625,-37.109375,0.0,0
1586284764.7445624,2,2,-69.3359375,-21.97265625,-40.0390625,-44.921875,0.0,0
1586284764.7484686,2,2,-11.71875,-33.203125,-40.52734375,-18.5546875,0.0,0
1586284764.752375,2,2,40.52734375,-29.78515625,-34.66796875,7.32421875,0.0,0
1586284764.7562811,2,2,18.5546875,-27.34375,-35.64453125,-3.41796875,0.0,0
1586284764.7601874,2,2,-55.17578125,-22.94921875,-37.59765625,-34.66796875,0.0,0
1586284764.7640936,2,2,-82.51953125,-22.4609375,-37.59765625,-44.43359375,0.0,0
1586284764.768,2,2,-30.2734375,-24.90234375,-43.45703125,-25.390625,0.0,0
1586284764.7719061,2,2,34.1796875,-28.3203125,-30.76171875,7.32421875,0.0,0
1586284764.7758124,2,2,20.5078125,-20.5078125,-17.578125,6.34765625,0.0,0
1586284764.7797186,2,2,-48.828125,-19.53125,-34.1796875,-41.015625,0.0,0
1586284764.783625,2,2,-89.35546875,-41.015625,-37.59765625,-60.05859375,0.0,0
1586284764.7875311,2,2,-45.41015625,-35.64453125,-24.90234375,-33.69140625,0.0,0
1586284764.7914374,2,2,19.53125,-22.94921875,-30.2734375,-2.44140625,0.0,0
1586284764.7953436,2,2,14.6484375,-23.92578125,-32.2265625,-5.859375,0.0,0
1586284764.79925,2,2,-41.50390625,-23.4375,-35.64453125,-40.0390625,0.0,0
1586284764.8031561,2,2,-81.0546875,-32.2265625,-38.0859375,-48.828125,0.0,0
1586284764.8070624,2,2,-48.33984375,-32.71484375,-26.85546875,-24.4140625,0.0,0
1586284764.8109686,2,2,20.5078125,-22.4609375,-39.0625,14.6484375,0.0,0
1586284764.814875,2,2,54.6875,-28.80859375,-42.48046875,18.06640625,0.0,0
1586284764.8187811,2,2,1.46484375,-32.2265625,-31.73828125,-15.625,0.0,0
1586284764.8226874,2,2,-60.546875,-40.52734375,-41.015625,-30.2734375,0.0,0
1586284764.8265936,2,2,-36.62109375,-45.41015625,-36.1328125,-21.97265625,0.0,0
1586284764.8305,2,2,34.1796875,-30.2734375,-18.5546875,11.71875,0.0,0
1586284764.8344061,2,2,40.0390625,-20.01953125,-20.5078125,19.53125,0.0,0
1586284764.8383124,2,2,-24.90234375,-24.4140625,-29.296875,-20.99609375,0.0,0
1586284764.8422186,2,2,-82.03125,-32.71484375,-32.71484375,-41.9921875,0.0,0
1586284764.846125,2,2,-63.4765625,-27.83203125,-43.45703125,-28.3203125,0.0,0
1586284764.8500311,2,2,0.0,-22.94921875,-45.41015625,4.39453125,0.0,0
1586284764.8539374,2,2,28.3203125,-28.80859375,-24.4140625,21.97265625,0.0,0
1586284764.8578436,2,2,-10.25390625,-35.15625,-32.2265625,-18.5546875,0.0,0
1586284764.86175,2,2,-81.0546875,-36.1328125,-42.96875,-62.01171875,0.0,0
1586284764.8656561,2,2,-80.56640625,-30.76171875,-46.38671875,-56.15234375,0.0,0
1586284764.8695624,2,2,5.37109375,-25.390625,-60.546875,-19.53125,0.0,0
1586284764.8734686,2,2,49.8046875,-15.625,-47.36328125,3.41796875,0.0,0
1586284764.877375,2,2,6.34765625,-23.92578125,-41.50390625,-13.18359375,0.0,0
1586284764.8812811,2,2,-64.94140625,-35.64453125,-36.1328125,-43.45703125,0.0,0
1586284764.8851874,2,2,-68.84765625,-27.83203125,-25.390625,-46.38671875,0.0,0
1586284764.8890936,2,2,-5.37109375,-25.390625,-38.0859375,-21.97265625,0.0,0
1586284764.893,2,2,35.64453125,-30.2734375,-44.921875,9.765625,0.0,0
1586284764.8969061,2,2,13.18359375,-30.2734375,-25.390625,3.41796875,0.0,0
1586284764.9008124,2,2,-46.38671875,-24.4140625,-15.13671875,-40.0390625,0.0,0
1586284764.9047186,2,2,-69.3359375,-21.97265625,-23.92578125,-53.22265625,0.0,0
1586284764.908625,2,2,-22.4609375,-23.92578125,-29.78515625,-17.578125,0.0,0
1586284764.9125311,2,2,29.78515625,-30.76171875,-35.64453125,19.53125,0.0,0
1586284764.9164374,2,2,2.9296875,-31.25,-46.875,0.9765625,0.0,0
1586284764.9203436,2,2,-57.6171875,-33.203125,-47.8515625,-44.921875,0.0,0
1586284764.92425,2,2,-86.42578125,-39.55078125,-51.7578125,-58.10546875,0.0,0
1586284764.9281561,2,2,-52.24609375,-31.73828125,-48.828125,-26.85546875,0.0,0
1586284764.9320624,2,2,33.203125,-26.85546875,-34.1796875,7.8125,0.0,0
1586284764.9359686,2,2,31.25,-32.2265625,-16.11328125,-4.8828125,0.0,0
1586284764.939875,2,2,-45.41015625,-28.3203125,-9.27734375,-40.0390625,0.0,0
1586284764.9437811,2,2,-80.078125,-24.4140625,-24.90234375,-53.22265625,0.0,0
1586284764.9476874,2,2,-41.50390625,-30.76171875,-38.0859375,-44.921875,0.0,0
1586284764.9515936,2,2,25.87890625,-35.15625,-29.78515625,-4.39453125,0.0,0
1586284764.9555,2,2,33.203125,-28.80859375,-17.578125,10.25390625,0.0,0
1586284764.9594061,2,2,-37.59765625,-28.3203125,-30.2734375,-34.66796875,0.0,0
1586284764.9633124,2,2,-83.49609375,-36.1328125,-46.875,-53.7109375,0.0,0
1586284764.9672186,2,2,-37.109375,-35.15625,-31.73828125,-25.390625,0.0,0
1586284764.971125,2,2,38.0859375,-31.25,-29.296875,12.6953125,0.0,0
1586284764.9750311,2,2,45.8984375,-20.01953125,-39.0625,13.18359375,0.0,0
1586284764.9789374,2,2,-17.08984375,-13.18359375,-36.62109375,-21.97265625,0.0,0
1586284764.9828436,2,2,-70.80078125,-20.01953125,-29.78515625,-40.52734375,0.0,0
1586284764.98675,2,2,-48.828125,-23.4375,-21.484375,-21.97265625,0.0,0
1586284764.9906561,2,2,23.4375,-19.04296875,-20.99609375,5.859375,0.0,0
1586284764.9945624,2,2,38.0859375,-22.4609375,-27.83203125,4.8828125,0.0,0
1586284764.9984686,2,2,-24.4140625,-27.83203125,-25.390625,-18.5546875,0.0,0
1586284765.002375,2,2,-88.8671875,-37.109375,-31.73828125,-47.36328125,0.0,0
1586284765.0062811,2,2,-73.2421875,-51.26953125,-44.921875,-43.9453125,0.0,0
1586284765.0101874,2,2,2.9296875,-42.48046875,-42.96875,-7.32421875,0.0,0
1586284765.0140936,2,2,35.64453125,-29.78515625,-20.01953125,8.7890625,0.0,0
1586284765.018,2,2,-16.6015625,-29.296875,-21.484375,-18.5546875,0.0,0
1586284765.0219061,2,2,-83.984375,-24.4140625,-35.15625,-56.15234375,0.0,0
1586284765.0258124,2,2,-73.73046875,-29.296875,-18.06640625,-52.734375,0.0,0
1586284765.0297186,2,2,-5.859375,-37.109375,-9.27734375,-15.625,0.0,0
1586284765.033625,2,2,24.4140625,-27.34375,-29.296875,9.27734375,0.0,0
1586284765.0375311,2,2,-13.671875,-21.484375,-33.203125,-11.71875,0.0,0
1586284765.0414374,2,2,-77.63671875,-34.1796875,-22.4609375,-50.78125,0.0,0
1586284765.0453436,2,2,-81.0546875,-37.59765625,-35.15625,-53.7109375,0.0,0
1586284765.04925,2,2,-14.16015625,-30.2734375,-41.9921875,-17.578125,0.0,0
1586284765.0531561,2,2,37.59765625,-39.0625,-28.3203125,-0.9765625,0.0,0
1586284765.0570624,2,2,12.6953125,-25.87890625,-14.16015625,-17.08984375,0.0,0
1586284765.0609686,2,2,-57.12890625,-6.8359375,-11.71875,-48.828125,0.0,0
1586284765.064875,2,2,-71.77734375,-20.01953125,-22.4609375,-61.5234375,0.0,0
1586284765.0687811,2,2,-11.71875,-24.90234375,-26.85546875,-24.90234375,0.0,0
1586284765.0726874,2,2,38.57421875,-33.203125,-23.92578125,1.953125,0.0,0
1586284765.0765936,2,2,9.765625,-33.69140625,-27.34375,-9.765625,0.0,0
1586284765.0805,2,2,-66.40625,-28.80859375,-33.69140625,-42.96875,0.0,0
1586284765.0844061,2,2,-87.40234375,-31.25,-32.2265625,-53.22265625,0.0,0
1586284765.0883124,2,2,-26.85546875,-40.52734375,-25.87890625,-28.80859375,0.0,0
1586284765.0922186,2,2,32.2265625,-36.1328125,-33.203125,1.46484375,0.0,0
1586284765.096125,2,2,18.06640625,-21.97265625,-41.50390625,-3.90625,0.0,0
1586284765.1000311,2,2,-51.7578125,-21.97265625,-41.9921875,-39.0625,0.0,0
1586284765.1039374,2,2,-86.9140625,-20.01953125,-33.203125,-51.7578125,0.0,0
1586284765.1078436,2,2,-35.64453125,-24.4140625,-30.76171875,-19.04296875,0.0,0
1586284765.11175,2,2,27.83203125,-24.4140625,-34.66796875,14.16015625,0.0,0
1586284765.1156561,2,2,23.4375,-31.25,-29.78515625,3.41796875,0.0,0
1586284765.1195624,2,2,-36.62109375,-41.9921875,-32.2265625,-37.59765625,0.0,0
1586284765.1234686,2,2,-80.56640625,-33.69140625,-21.97265625,-59.5703125,0.0,0
1586284765.127375,2,2,-41.015625,-33.203125,-18.06640625,-33.69140625,0.0,0
1586284765.1312811,2,2,29.296875,-32.2265625,-25.390625,1.46484375,0.0,0
1586284765.1351874,2,2,20.99609375,-24.90234375,-23.4375,4.39453125,0.0,0
1586284765.1390936,2,2,-49.31640625,-21.97265625,-23.4375,-27.34375,0.0,0
1586284765.143,2,2,-92.7734375,-17.578125,-33.203125,-56.640625,0.0,0
1586284765.1469061,2,2,-62.01171875,-31.25,-49.31640625,-37.109375,0.0,0
1586284765.1508124,2,2,7.8125,-40.0390625,-42.48046875,6.34765625,0.0,0
1586284765.1547186,2,2,29.296875,-29.78515625,-26.85546875,9.765625,0.0,0
1586284765.158625,2,2,-26.3671875,-30.2734375,-23.4375,-25.390625,0.0,0
1586284765.1625311,2,2,-81.0546875,-35.15625,-23.92578125,-47.8515625,0.0,0
1586284765.1664374,2,2,-56.640625,-31.73828125,-33.203125,-30.76171875,0.0,0
1586284765.1703436,2,2,10.25390625,-32.2265625,-34.1796875,5.37109375,0.0,0
1586284765.17425,2,2,33.69140625,-35.15625,-33.203125,6.34765625,0.0,0
1586284765.1781561,2,2,-18.06640625,-32.2265625,-29.78515625,-29.78515625,0.0,0
1586284765.1820624,2,2,-85.44921875,-27.83203125,-39.55078125,-58.10546875,0.0,0
1586284765.1859686,2,2,-75.1953125,-32.71484375,-41.50390625,-52.734375,0.0,0
1586284765.189875,2,2,-2.9296875,-36.1328125,-38.57421875,-6.8359375,0.0,0
1586284765.1937811,2,2,36.62109375,-30.2734375,-47.36328125,25.87890625,0.0,0
1586284765.1976874,2,2,-13.671875,-34.66796875,-34.1796875,-4.8828125,0.0,0
1586284765.2015936,2,2,-80.078125,-31.25,-27.34375,-52.24609375,0.0,0
1586284765.2055,2,2,-78.125,-25.87890625,-32.71484375,-60.05859375,0.0,0
1586284765.2094061,2,2,-8.7890625,-34.66796875,-31.25,-10.7421875,0.0,0
1586284765.2133124,2,2,45.8984375,-34.1796875,-21.97265625,18.06640625,0.0,0
1586284765.2172186,2,2,14.16015625,-33.69140625,-35.15625,-3.90625,0.0,0
1586284765.221125,2,2,-60.05859375,-53.7109375,-39.0625,-43.9453125,0.0,0
1586284765.2250311,2,2,-75.68359375,-56.640625,-24.90234375,-43.9453125,0.0,0
1586284765.2289374,2,2,-14.6484375,-36.1328125,-28.3203125,-10.25390625,0.0,0
1586284765.2328436,2,2,37.59765625,-28.80859375,-41.015625,4.39453125,0.0,0
1586284765.23675,2,2,7.8125,-28.3203125,-41.9921875,-17.08984375,0.0,0
1586284765.2406561,2,2,-67.87109375,-35.15625,-33.203125,-49.8046875,0.0,0
1586284765.2445624,2,2,-88.37890625,-35.64453125,-33.69140625,-58.10546875,0.0,0
1586284765.2484686,2,2,-28.3203125,-36.62109375,-45.8984375,-31.73828125,0.0,0
1586284765.252375,2,2,25.87890625,-42.48046875,-47.8515625,-3.90625,0.0,0
1586284765.2562811,2,2,6.8359375,-37.109375,-27.34375,-12.20703125,0.0,0
1586284765.2601874,2,2,-59.5703125,-37.109375,-20.01953125,-53.22265625,0.0,0
1586284765.2640936,2,2,-84.9609375,-34.66796875,-6.8359375,-60.05859375,0.0,0
1586284765.268,2,2,-38.57421875,-30.76171875,-18.06640625,-24.90234375,0.0,0
1586284765.2719061,2,2,21.97265625,-23.4375,-37.109375,4.39453125,0.0,0
1586284765.2758124,2,2,16.6015625,-14.6484375,-35.15625,-3.41796875,0.0,0
1586284765.2797186,2,2,-46.38671875,-21.484375,-39.0625,-47.36328125,0.0,0
1586284765.283625,2,2,-80.078125,-39.0625,-35.15625,-70.3125,0.0,0
1586284765.2875311,2,2,-45.8984375,-41.50390625,-38.0859375,-46.38671875,0.0,0
1586284765.2914374,2,2,24.4140625,-26.3671875,-41.9921875,-6.34765625,0.0,0
1586284765.2953436,2,2,38.57421875,-28.80859375,-34.66796875,-2.44140625,0.0,0
1586284765.29925,2,2,-28.3203125,-39.55078125,-38.57421875,-30.76171875,0.0,0
1586284765.3031561,2,2,-75.1953125,-38.57421875,-40.0390625,-49.31640625,0.0,0
1586284765.3070624,2,2,-40.52734375,-42.48046875,-47.36328125,-36.1328125,0.0,0
1586284765.3109686,2,2,35.15625,-28.80859375,-38.0859375,1.953125,0.0,0
1586284765.314875,2,2,52.734375,-13.18359375,-18.06640625,19.53125,0.0,0
1586284765.3187811,2,2,-15.625,-23.4375,-29.296875,-19.04296875,0.0,0
1586284765.3226874,2,2,-71.77734375,-25.87890625,-32.71484375,-55.6640625,0.0,0
1586284765.3265936,2,2,-46.875,-22.4609375,-36.1328125,-36.1328125,0.0,0
1586284765.3305,2,2,25.390625,-26.3671875,-45.8984375,6.8359375,0.0,0
1586284765.3344061,2,2,42.48046875,-26.85546875,-41.50390625,16.11328125,0.0,0
1586284765.3383124,2,2,-20.99609375,-24.90234375,-35.64453125,-25.87890625,0.0,0
1586284765.3422186,2,2,-84.47265625,-31.25,-30.2734375,-66.89453125,0.0,0
1586284765.346125,2,2,-73.73046875,-38.0859375,-32.2265625,-49.8046875,0.0,0
1586284765.3500311,2,2,-7.8125,-38.0859375,-37.109375,2.44140625,0.0,0
1586284765.3539374,2,2,21.97265625,-27.34375,-31.73828125,20.99609375,0.0,0
1586284765.3578436,2,2,-27.83203125,-23.4375,-25.87890625,-6.34765625,0.0,0
1586284765.36175,2,2,-82.03125,-25.390625,-32.2265625,-38.57421875,0.0,0
1586284765.3656561,2,2,-67.3828125,-12.6953125,-37.59765625,-41.015625,0.0,0
1586284765.3695624,2,2,-3.41796875,-11.23046875,-35.64453125,-6.34765625,0.0,0
1586284765.3734686,2,2,30.2734375,-20.01953125,-40.52734375,11.23046875,0.0,0
1586284765.377375,2,2,-8.30078125,-18.06640625,-45.41015625,-15.625,0.0,0
1586284765.3812811,2,2,-61.5234375,-13.18359375,-39.55078125,-52.24609375,0.0,0
1586284765.3851874,2,2,-64.453125,-15.13671875,-35.15625,-54.6875,0.0,0
1586284765.3890936,2,2,-10.25390625,-18.5546875,-33.69140625,-29.296875,0.0,0
1586284765.393,2,2,41.015625,-23.92578125,-32.2265625,0.48828125,0.0,0
1586284765.3969061,2,2,20.5078125,-23.92578125,-31.25,-3.90625,0.0,0
1586284765.4008124,2,2,-45.41015625,-21.97265625,-28.3203125,-42.96875,0.0,0
1586284765.4047186,2,2,-63.4765625,-17.08984375,-27.34375,-51.26953125,0.0,0
1586284765.408625,2,2,-4.8828125,-11.23046875,-25.390625,-13.671875,0.0,0
1586284765.4125311,2,2,47.8515625,-26.85546875,-30.76171875,16.11328125,0.0,0
1586284765.4164374,2,2,22.4609375,-37.109375,-49.8046875,-7.32421875,0.0,0
1586284765.4203436,2,2,-53.22265625,-32.2265625,-56.15234375,-41.9921875,0.0,0
1586284765.42425,2,2,-76.66015625,-24.90234375,-31.25,-46.875,0.0,0
1586284765.4281561,2,2,-20.01953125,-23.92578125,-3.41796875,-24.4140625,0.0,0
1586284765.4320624,2,2,38.0859375,-39.55078125,-5.859375,14.6484375,0.0,0
1586284765.4359686,2,2,26.85546875,-40.0390625,-30.2734375,13.671875,0.0,0
1586284765.439875,2,2,-35.64453125,-30.2734375,-38.57421875,-29.296875,0.0,0
1586284765.4437811,2,2,-70.3125,-24.90234375,-37.109375,-44.921875,0.0,0
1586284765.4476874,2,2,-32.2265625,-19.04296875,-23.92578125,-14.16015625,0.0,0
1586284765.4515936,2,2,34.1796875,-22.4609375,-11.71875,11.23046875,0.0,0
1586284765.4555,2,2,33.203125,-30.2734375,-25.390625,3.41796875,0.0,0
1586284765.4594061,2,2,-41.50390625,-34.66796875,-38.0859375,-34.1796875,0.0,0
1586284765.4633124,2,2,-83.984375,-31.25,-32.71484375,-59.08203125,0.0,0
1586284765.4672186,2,2,-46.38671875,-26.85546875,-26.85546875,-31.73828125,0.0,0
1586284765.471125,2,2,22.94921875,-33.69140625,-32.2265625,0.0,0.0,0
1586284765.4750311,2,2,34.1796875,-36.62109375,-29.296875,-3.90625,0.0,0
1586284765.4789374,2,2,-28.3203125,-29.78515625,-24.4140625,-28.80859375,0.0,0
1586284765.4828436,2,2,-76.171875,-22.94921875,-25.87890625,-44.43359375,0.0,0
1586284765.48675,2,2,-51.26953125,-14.16015625,-17.578125,-22.94921875,0.0,0
1586284765.4906561,2,2,24.4140625,-14.6484375,-3.90625,12.20703125,0.0,0
1586284765.4945624,2,2,41.015625,-22.94921875,-10.7421875,18.5546875,0.0,0
1586284765.4984686,2,2,-21.484375,-23.92578125,-26.85546875,-7.8125,0.0,0
1586284765.502375,2,2,-70.3125,-29.78515625,-28.3203125,-41.015625,0.0,0
1586284765.5062811,2,2,-52.734375,-36.62109375,-24.4140625,-33.203125,0.0,0
1586284765.5101874,2,2,24.4140625,-23.92578125,-18.06640625,14.6484375,0.0,0
1586284765.5140936,2,2,61.03515625,-15.625,-27.83203125,31.73828125,0.0,0
1586284765.518,2,2,4.39453125,-12.20703125,-40.0390625,-11.23046875,0.0,0
1586284765.5219061,2,2,-65.4296875,-23.4375,-27.83203125,-49.8046875,0.0,0
1586284765.5258124,2,2,-65.91796875,-36.1328125,-25.390625,-42.96875,0.0,0
1586284765.5297186,2,2,0.0,-25.87890625,-40.52734375,-0.9765625,0.0,0
1586284765.533625,2,2,44.921875,-15.13671875,-46.38671875,18.06640625,0.0,0
1586284765.5375311,2,2,1.953125,-10.7421875,-32.2265625,-11.23046875,0.0,0
1586284765.5414374,2,2,-69.82421875,-22.94921875,-25.390625,-38.57421875,0.0,0
1586284765.5453436,2,2,-67.87109375,-21.484375,-32.71484375,-33.69140625,0.0,0
1586284765.54925,2,2,-2.9296875,-16.11328125,-26.85546875,-8.30078125,0.0,0
1586284765.5531561,2,2,52.24609375,-26.85546875,-26.85546875,9.27734375,0.0,0
1586284765.5570624,2,2,-2.9296875,-27.83203125,-35.64453125,-8.30078125,0.0,0
1586284765.5609686,2,2,-86.42578125,-23.92578125,-28.3203125,-39.55078125,0.0,0
1586284765.564875,2,2,-76.171875,-29.296875,-31.73828125,-42.96875,0.0,0
1586284765.5687811,2,2,-12.6953125,-33.203125,-32.71484375,-1.46484375,0.0,0
1586284765.5726874,2,2,40.52734375,-34.1796875,-11.71875,34.1796875,0.0,0
1586284765.5765936,2,2,20.01953125,-33.203125,-14.6484375,12.20703125,0.0,0
1586284765.5805,2,2,-50.29296875,-26.3671875,-41.015625,-36.62109375,0.0,0
1586284765.5844061,2,2,-79.1015625,-36.62109375,-43.45703125,-57.6171875,0.0,0
1586284765.5883124,2,2,-19.04296875,-43.9453125,-37.59765625,-28.3203125,0.0,0
1586284765.5922186,2,2,49.31640625,-28.80859375,-41.50390625,3.90625,0.0,0
1586284765.596125,2,2,36.1328125,-29.296875,-35.15625,-4.39453125,0.0,0
1586284765.6000311,2,2,-40.52734375,-45.8984375,-25.390625,-31.25,0.0,0
1586284765.6039374,2,2,-75.68359375,-36.1328125,-34.66796875,-47.36328125,0.0,0
1586284765.6078436,2,2,-30.76171875,-24.90234375,-35.64453125,-21.484375,0.0,0
1586284765.61175,2,2,30.2734375,-38.57421875,-17.578125,24.90234375,0.0,0
1586284765.6156561,2,2,25.390625,-37.59765625,-23.92578125,16.11328125,0.0,0
1586284765.6195624,2,2,-50.29296875,-27.83203125,-37.59765625,-35.15625,0.0,0
1586284765.6234686,2,2,-94.23828125,-22.94921875,-43.45703125,-63.96484375,0.0,0
1586284765.627375,2,2,-54.19921875,-20.99609375,-43.9453125,-43.45703125,0.0,0
1586284765.6312811,2,2,17.578125,-16.11328125,-30.76171875,3.41796875,0.0,0
1586284765.6351874,2,2,28.3203125,-15.625,-39.55078125,9.27734375,0.0,0
1586284765.6390936,2,2,-36.1328125,-24.4140625,-51.26953125,-34.66796875,0.0,0
1586284765.643,2,2,-82.51953125,-29.296875,-36.62109375,-60.05859375,0.0,0
1586284765.6469061,2,2,-49.8046875,-26.85546875,-28.3203125,-37.59765625,0.0,0
1586284765.6508124,2,2,20.01953125,-31.73828125,-39.0625,-1.46484375,0.0,0
1586284765.6547186,2,2,35.64453125,-36.62109375,-54.19921875,0.9765625,0.0,0
1586284765.658625,2,2,-20.01953125,-25.390625,-49.8046875,-30.2734375,0.0,0
1586284765.6625311,2,2,-78.125,-32.71484375,-34.1796875,-62.01171875,0.0,0
1586284765.6664374,2,2,-69.82421875,-31.25,-28.3203125,-52.734375,0.0,0
1586284765.6703436,2,2,5.37109375,-26.85546875,-41.9921875,-4.39453125,0.0,0
1586284765.67425,2,2,46.38671875,-34.66796875,-41.50390625,19.53125,0.0,0
1586284765.6781561,2,2,-9.765625,-36.1328125,-43.45703125,-11.23046875,0.0,0
1586284765.6820624,2,2,-69.82421875,-48.33984375,-58.10546875,-49.31640625,0.0,0
1586284765.6859686,2,2,-64.94140625,-48.828125,-38.0859375,-41.50390625,0.0,0
1586284765.689875,2,2,-3.90625,-25.87890625,-29.296875,-3.41796875,0.0,0
1586284765.6937811,2,2,40.0390625,-22.94921875,-40.0390625,19.04296875,0.0,0
1586284765.6976874,2,2,-3.90625,-26.3671875,-47.36328125,-5.859375,0.0,0
1586284765.7015936,2,2,-73.73046875,-19.04296875,-41.9921875,-47.36328125,0.0,0
1586284765.7055,2,2,-73.73046875,-30.76171875,-30.76171875,-40.52734375,0.0,0
1586284765.7094061,2,2,-2.9296875,-45.41015625,-40.52734375,-3.41796875,0.0,0
1586284765.7133124,2,2,47.8515625,-45.8984375,-48.828125,13.671875,0.0,0
1586284765.7172186,2,2,10.7421875,-41.50390625,-41.9921875,-5.859375,0.0,0
1586284765.721125,2,2,-71.2890625,-35.15625,-50.78125,-47.36328125,0.0,0
1586284765.7250311,2,2,-73.2421875,-37.109375,-60.05859375,-55.6640625,0.0,0
1586284765.7289374,2,2,-0.48828125,-32.2265625,-42.96875,-20.99609375,0.0,0
1586284765.7328436,2,2,39.0625,-20.99609375,-25.87890625,8.30078125,0.0,0
1586284765.73675,2,2,10.7421875,-31.73828125,-26.85546875,-3.41796875,0.0,0
1586284765.7406561,2,2,-59.5703125,-33.203125,-46.875,-43.9453125,0.0,0
1586284765.7445624,2,2,-83.984375,-25.87890625,-53.7109375,-56.640625,0.0,0
1586284765.7484686,2,2,-26.3671875,-39.55078125,-49.8046875,-19.04296875,0.0,0
1586284765.752375,2,2,40.52734375,-33.203125,-58.10546875,22.4609375,0.0,0
1586284765.7562811,2,2,31.73828125,-19.53125,-44.43359375,15.13671875,0.0,0
1586284765.7601874,2,2,-43.45703125,-22.94921875,-29.296875,-25.390625,0.0,0
1586284765.7640936,2,2,-80.56640625,-35.64453125,-39.0625,-40.52734375,0.0,0
1586284765.768,2,2,-33.69140625,-32.2265625,-29.296875,-17.578125,0.0,0
1586284765.7719061,2,2,32.71484375,-22.4609375,-20.01953125,17.578125,0.0,0
1586284765.7758124,2,2,30.2734375,-35.15625,-21.484375,14.6484375,0.0,0
1586284765.7797186,2,2,-49.8046875,-48.33984375,-28.80859375,-29.296875,0.0,0
1586284765.783625,2,2,-83.984375,-44.43359375,-36.62109375,-55.17578125,0.0,0
1586284765.7875311,2,2,-32.71484375,-40.0390625,-39.55078125,-31.25,0.0,0
1586284765.7914374,2,2,18.06640625,-45.8984375,-43.45703125,-11.23046875,0.0,0
1586284765.7953436,2,2,28.3203125,-44.43359375,-37.109375,-3.90625,0.0,0
1586284765.79925,2,2,-23.92578125,-40.52734375,-34.1796875,-17.578125,0.0,0
1586284765.8031561,2,2,-73.2421875,-32.2265625,-34.1796875,-45.8984375,0.0,0
1586284765.8070624,2,2,-49.31640625,-20.01953125,-33.203125,-30.2734375,0.0,0
1586284765.8109686,2,2,21.484375,-35.64453125,-35.15625,3.41796875,0.0,0
1586284765.814875,2,2,36.1328125,-37.59765625,-29.296875,4.39453125,0.0,0
1586284765.8187811,2,2,-25.390625,-30.76171875,-25.390625,-28.3203125,0.0,0
1586284765.8226874,2,2,-82.03125,-53.7109375,-36.1328125,-59.5703125,0.0,0
1586284765.8265936,2,2,-68.359375,-45.41015625,-53.7109375,-42.96875,0.0,0
1586284765.8305,2,2,2.44140625,-13.671875,-51.26953125,-2.9296875,0.0,0
1586284765.8344061,2,2,27.83203125,-16.11328125,-48.828125,0.48828125,0.0,0
1586284765.8383124,2,2,-20.01953125,-26.85546875,-55.17578125,-27.34375,0.0,0
1586284765.8422186,2,2,-75.1953125,-24.90234375,-45.8984375,-46.38671875,0.0,0
1586284765.846125,2,2,-82.03125,-24.90234375,-41.9921875,-46.875,0.0,0
1586284765.8500311,2,2,-11.23046875,-29.296875,-36.1328125,-15.625,0.0,0
1586284765.8539374,2,2,49.31640625,-38.57421875,-34.66796875,9.765625,0.0,0
1586284765.8578436,2,2,-1.46484375,-39.55078125,-29.296875,-22.4609375,0.0,0
1586284765.86175,2,2,-62.98828125,-43.45703125,-30.2734375,-62.5,0.0,0
1586284765.8656561,2,2,-62.5,-37.109375,-35.15625,-51.7578125,0.0,0
1586284765.8695624,2,2,-4.39453125,-30.76171875,-24.90234375,-8.7890625,0.0,0
1586284765.8734686,2,2,38.57421875,-41.9921875,-24.90234375,13.18359375,0.0,0
1586284765.877375,2,2,0.48828125,-41.50390625,-34.1796875,-9.27734375,0.0,0
1586284765.8812811,2,2,-69.3359375,-44.43359375,-39.55078125,-50.29296875,0.0,0
1586284765.8851874,2,2,-83.49609375,-54.19921875,-49.8046875,-59.5703125,0.0,0
1586284765.8890936,2,2,-24.4140625,-50.78125,-45.8984375,-20.99609375,0.0,0
1586284765.893,2,2,33.203125,-42.96875,-43.45703125,3.41796875,0.0,0
1586284765.8969061,2,2,13.18359375,-30.2734375,-35.64453125,-9.765625,0.0,0
1586284765.9008124,2,2,-55.17578125,-20.5078125,-24.90234375,-34.66796875,0.0,0
1586284765.9047186,2,2,-80.078125,-29.78515625,-21.484375,-38.57421875,0.0,0
1586284765.908625,2,2,-20.5078125,-39.55078125,-24.90234375,-10.25390625,0.0,0
1586284765.9125311,2,2,43.9453125,-44.921875,-39.0625,15.625,0.0,0
1586284765.9164374,2,2,27.34375,-36.62109375,-42.48046875,-3.41796875,0.0,0
1586284765.9203436,2,2,-45.41015625,-37.109375,-38.57421875,-54.6875,0.0,0
1586284765.92425,2,2,-80.56640625,-56.15234375,-30.76171875,-63.4765625,0.0,0
1586284765.9281561,2,2,-36.62109375,-51.7578125,-42.96875,-28.80859375,0.0,0
1586284765.9320624,2,2,29.78515625,-46.38671875,-47.8515625,13.18359375,0.0,0
1586284765.9359686,2,2,35.64453125,-42.48046875,-33.69140625,17.578125,0.0,0
1586284765.939875,2,2,-36.62109375,-39.0625,-44.921875,-34.66796875,0.0,0
1586284765.9437811,2,2,-76.171875,-37.109375,-42.96875,-61.5234375,0.0,0
1586284765.9476874,2,2,-25.87890625,-32.71484375,-26.3671875,-32.71484375,0.0,0
1586284765.9515936,2,2,41.015625,-33.69140625,-25.87890625,4.8828125,0.0,0
1586284765.9555,2,2,42.48046875,-38.0859375,-31.25,0.48828125,0.0,0
1586284765.9594061,2,2,-22.4609375,-35.15625,-34.1796875,-22.4609375,0.0,0
1586284765.9633124,2,2,-76.171875,-32.71484375,-38.0859375,-45.41015625,0.0,0
1586284765.9672186,2,2,-51.26953125,-39.55078125,-38.57421875,-38.0859375,0.0,0
1586284765.971125,2,2,20.99609375,-39.55078125,-33.203125,-3.41796875,0.0,0
1586284765.9750311,2,2,43.9453125,-41.50390625,-38.57421875,9.765625,0.0,0
1586284765.9789374,2,2,-31.73828125,-42.96875,-53.7109375,-16.11328125,0.0,0
1586284765.9828436,2,2,-86.9140625,-30.2734375,-63.96484375,-39.55078125,0.0,0
1586284765.98675,2,2,-34.1796875,-26.85546875,-49.31640625,-22.94921875,0.0,0
1586284765.9906561,2,2,26.85546875,-34.1796875,-41.50390625,4.39453125,0.0,0
1586284765.9945624,2,2,38.57421875,-41.015625,-49.8046875,7.32421875,0.0,0
1586284765.9984686,2,2,-10.7421875,-43.45703125,-41.9921875,-22.4609375,0.0,0
1586284766.002375,2,2,-71.2890625,-33.203125,-29.78515625,-50.78125,0.0,0
1586284766.0062811,2,2,-69.82421875,-33.69140625,-34.1796875,-36.62109375,0.0,0
1586284766.0101874,2,2,-1.46484375,-37.109375,-42.48046875,2.44140625,0.0,0
1586284766.0140936,2,2,37.59765625,-34.66796875,-44.43359375,14.6484375,0.0,0
1586284766.018,2,2,-4.8828125,-31.73828125,-51.26953125,-11.23046875,0.0,0
1586284766.0219061,2,2,-72.75390625,-33.69140625,-42.96875,-43.9453125,0.0,0
1586284766.0258124,2,2,-80.56640625,-34.66796875,-43.9453125,-42.48046875,0.0,0
1586284766.0297186,2,2,-10.25390625,-23.4375,-46.875,-10.25390625,0.0,0
1586284766.033625,2,2,35.64453125,-30.76171875,-22.94921875,8.7890625,0.0,0
1586284766.0375311,2,2,-9.765625,-39.55078125,-25.87890625,-9.27734375,0.0,0
1586284766.0414374,2,2,-81.0546875,-30.76171875,-35.64453125,-45.8984375,0.0,0
1586284766.0453436,2,2,-84.47265625,-31.73828125,-28.3203125,-45.8984375,0.0,0
1586284766.04925,2,2,-9.765625,-31.73828125,-24.4140625,-5.859375,0.0,0
1586284766.0531561,2,2,46.875,-24.4140625,-28.80859375,17.08984375,0.0,0
1586284766.0570624,2,2,17.08984375,-24.4140625,-32.71484375,4.8828125,0.0,0
1586284766.0609686,2,2,-55.17578125,-29.78515625,-26.3671875,-26.3671875,0.0,0
1586284766.064875,2,2,-75.1953125,-29.296875,-27.83203125,-34.1796875,0.0,0
1586284766.0687811,2,2,-21.97265625,-25.390625,-30.76171875,-6.34765625,0.0,0
1586284766.0726874,2,2,28.80859375,-29.78515625,-30.76171875,14.16015625,0.0,0
1586284766.0765936,2,2,10.7421875,-31.25,-29.296875,0.9765625,0.0,0
1586284766.0805,2,2,-54.19921875,-20.5078125,-31.73828125,-25.390625,0.0,0
1586284766.0844061,2,2,-84.9609375,-31.73828125,-29.296875,-35.64453125,0.0,0
1586284766.0883124,2,2,-30.2734375,-33.203125,-17.08984375,-17.578125,0.0,0
1586284766.0922186,2,2,44.921875,-18.5546875,-11.71875,16.11328125,0.0,0
1586284766.096125,2,2,34.66796875,-20.5078125,-16.6015625,12.6953125,0.0,0
1586284766.1000311,2,2,-40.0390625,-20.99609375,-21.97265625,-31.25,0.0,0
1586284766.1039374,2,2,-80.078125,-24.4140625,-35.15625,-65.4296875,0.0,0
1586284766.1078436,2,2,-33.203125,-39.0625,-28.3203125,-45.41015625,0.0,0
1586284766.11175,2,2,35.64453125,-33.69140625,-16.6015625,-8.7890625,0.0,0
1586284766.1156561,2,2,32.2265625,-29.296875,-28.80859375,-10.7421875,0.0,0
1586284766.1195624,2,2,-35.15625,-29.296875,-35.64453125,-34.1796875,0.0,0
1586284766.1234686,2,2,-77.1484375,-20.5078125,-41.015625,-46.875,0.0,0
1586284766.127375,2,2,-39.0625,-24.90234375,-38.0859375,-19.04296875,0.0,0
1586284766.1312811,2,2,34.1796875,-28.80859375,-24.90234375,23.4375,0.0,0
1586284766.1351874,2,2,48.828125,-25.390625,-22.94921875,27.34375,0.0,0
1586284766.1390936,2,2,-11.23046875,-25.87890625,-24.4140625,-17.08984375,0.0,0
1586284766.143,2,2,-69.82421875,-29.78515625,-29.296875,-63.96484375,0.0,0
1586284766.1469061,2,2,-52.734375,-29.296875,-25.390625,-51.26953125,0.0,0
1586284766.1508124,2,2,12.6953125,-28.3203125,-30.2734375,-5.859375,0.0,0
1586284766.1547186,2,2,41.015625,-30.2734375,-34.66796875,2.9296875,0.0,0
1586284766.158625,2,2,-13.671875,-48.33984375,-27.83203125,-29.78515625,0.0,0
1586284766.1625311,2,2,-79.1015625,-36.62109375,-37.109375,-60.546875,0.0,0
1586284766.1664374,2,2,-71.2890625,-20.01953125,-41.50390625,-59.5703125,0.0,0
1586284766.1703436,2,2,-1.46484375,-26.3671875,-49.31640625,-19.53125,0.0,0
1586284766.17425,2,2,41.9921875,-21.484375,-50.78125,13.18359375,0.0,0
1586284766.1781561,2,2,3.90625,-13.18359375,-28.3203125,-8.7890625,0.0,0
1586284766.1820624,2,2,-60.05859375,-10.7421875,-31.25,-38.57421875,0.0,0
1586284766.1859686,2,2,-63.96484375,-16.11328125,-40.52734375,-34.1796875,0.0,0
1586284766.189875,2,2,-2.44140625,-13.671875,-34.1796875,0.9765625,0.0,0
1586284766.1937811,2,2,38.57421875,-19.53125,-22.94921875,19.53125,0.0,0
1586284766.1976874,2,2,-6.8359375,-24.90234375,-19.53125,-6.34765625,0.0,0
1586284766.2015936,2,2,-76.66015625,-23.92578125,-28.80859375,-43.9453125,0.0,0
1586284766.2055,2,2,-85.44921875,-33.203125,-27.34375,-47.8515625,0.0,0
1586284766.2094061,2,2,-22.4609375,-35.15625,-17.08984375,-13.18359375,0.0,0
1586284766.2133124,2,2,37.59765625,-22.94921875,-18.5546875,5.37109375,0.0,0
1586284766.2172186,2,2,2.9296875,-31.25,-22.4609375,-13.18359375,0.0,0
1586284766.221125,2,2,-73.73046875,-38.0859375,-25.87890625,-46.875,0.0,0
1586284766.2250311,2,2,-84.47265625,-27.83203125,-22.4609375,-57.12890625,0.0,0
1586284766.2289374,2,2,-25.87890625,-27.83203125,-24.90234375,-21.484375,0.0,0
1586284766.2328436,2,2,24.90234375,-24.90234375,-40.52734375,8.7890625,0.0,0
1586284766.23675,2,2,3.41796875,-24.4140625,-40.52734375,1.46484375,0.0,0
1586284766.2406561,2,2,-61.03515625,-28.80859375,-34.1796875,-30.76171875,0.0,0
1586284766.2445624,2,2,-86.9140625,-38.0859375,-27.83203125,-48.828125,0.0,0
1586284766.2484686,2,2,-32.71484375,-44.921875,-19.53125,-13.18359375,0.0,0
1586284766.252375,2,2,36.62109375,-33.203125,-18.5546875,25.87890625,0.0,0
1586284766.2562811,2,2,32.71484375,-19.53125,-10.25390625,19.04296875,0.0,0
1586284766.2601874,2,2,-37.109375,-20.01953125,-14.16015625,-14.6484375,0.0,0
1586284766.2640936,2,2,-71.2890625,-31.25,-33.203125,-31.73828125,0.0,0
1586284766.268,2,2,-18.5546875,-30.76171875,-36.1328125,-9.27734375,0.0,0
1586284766.2719061,2,2,29.78515625,-25.87890625,-24.90234375,28.80859375,0.0,0
1586284766.2758124,2,2,29.296875,-38.57421875,-23.4375,31.73828125,0.0,0
1586284766.2797186,2,2,-24.4140625,-38.0859375,-20.99609375,-12.20703125,0.0,0
1586284766.283625,2,2,-68.359375,-14.6484375,-25.87890625,-50.78125,0.0,0
1586284766.2875311,2,2,-33.69140625,-12.20703125,-41.9921875,-34.1796875,0.0,0
1586284766.2914374,2,2,38.0859375,-22.4609375,-30.76171875,13.18359375,0.0,0
1586284766.2953436,2,2,59.08203125,-18.06640625,-13.671875,13.671875,0.0,0
1586284766.29925,2,2,-4.8828125,-18.5546875,-19.53125,-26.85546875,0.0,0
1586284766.3031561,2,2,-66.40625,-30.2734375,-31.25,-44.43359375,0.0,0
1586284766.3070624,2,2,-42.48046875,-31.25,-34.1796875,-28.80859375,0.0,0
1586284766.3109686,2,2,23.4375,-24.4140625,-33.203125,4.39453125,0.0,0
1586284766.314875,2,2,35.15625,-25.390625,-24.90234375,12.6953125,0.0,0
1586284766.3187811,2,2,-21.97265625,-30.2734375,-26.3671875,-21.484375,0.0,0
1586284766.3226874,2,2,-78.61328125,-36.62109375,-39.55078125,-47.8515625,0.0,0
1586284766.3265936,2,2,-55.6640625,-41.50390625,-34.1796875,-44.43359375,0.0,0
1586284766.3305,2,2,21.484375,-28.3203125,-24.4140625,-5.37109375,0.0,0
1586284766.3344061,2,2,57.12890625,-23.92578125,-37.109375,19.04296875,0.0,0
1586284766.3383124,2,2,8.30078125,-32.71484375,-38.0859375,-15.13671875,0.0,0
1586284766.3422186,2,2,-69.3359375,-35.15625,-30.76171875,-50.29296875,0.0,0
1586284766.346125,2,2,-74.21875,-26.85546875,-29.296875,-44.921875,0.0,0
1586284766.3500311,2,2,-2.9296875,-23.92578125,-23.92578125,-5.37109375,0.0,0
1586284766.3539374,2,2,36.1328125,-23.4375,-27.83203125,20.5078125,0.0,0
1586284766.3578436,2,2,-11.71875,-21.97265625,-30.2734375,-18.06640625,0.0,0
1586284766.36175,2,2,-76.66015625,-18.5546875,-27.83203125,-62.98828125,0.0,0
1586284766.3656561,2,2,-75.68359375,-26.3671875,-31.73828125,-51.7578125,0.0,0
1586284766.3695624,2,2,-19.04296875,-39.55078125,-38.0859375,-15.13671875,0.0,0
1586284766.3734686,2,2,26.85546875,-44.43359375,-39.55078125,0.9765625,0.0,0
1586284766.377375,2,2,3.90625,-39.0625,-29.78515625,-13.18359375,0.0,0
1586284766.3812811,2,2,-73.73046875,-39.0625,-31.25,-56.640625,0.0,0
1586284766.3851874,2,2,-94.7265625,-42.48046875,-40.0390625,-66.40625,0.0,0
1586284766.3890936,2,2,-31.73828125,-35.64453125,-40.0390625,-26.85546875,0.0,0
1586284766.393,2,2,30.76171875,-29.296875,-32.2265625,11.23046875,0.0,0
1586284766.3969061,2,2,14.6484375,-40.0390625,-33.69140625,-2.44140625,0.0,0
1586284766.4008124,2,2,-60.546875,-41.015625,-44.43359375,-44.921875,0.0,0
1586284766.4047186,2,2,-92.28515625,-31.73828125,-35.64453125,-54.6875,0.0,0
1586284766.408625,2,2,-33.69140625,-35.64453125,-26.85546875,-22.94921875,0.0,0
1586284766.4125311,2,2,35.64453125,-38.57421875,-30.2734375,20.99609375,0.0,0
1586284766.4164374,2,2,25.87890625,-33.203125,-27.34375,12.20703125,0.0,0
1586284766.4203436,2,2,-52.24609375,-30.76171875,-27.83203125,-35.64453125,0.0,0
1586284766.42425,2,2,-91.30859375,-29.78515625,-28.80859375,-56.15234375,0.0,0
1586284766.4281561,2,2,-34.1796875,-29.296875,-32.2265625,-30.2734375,0.0,0
1586284766.4320624,2,2,29.78515625,-44.921875,-38.0859375,0.48828125,0.0,0
1586284766.4359686,2,2,29.296875,-41.50390625,-37.59765625,-2.9296875,0.0,0
1586284766.439875,2,2,-35.15625,-33.69140625,-35.64453125,-37.109375,0.0,0
1586284766.4437811,2,2,-83.49609375,-38.57421875,-23.92578125,-56.15234375,0.0,0
1586284766.4476874,2,2,-42.48046875,-35.64453125,-25.87890625,-25.87890625,0.0,0
1586284766.4515936,2,2,25.390625,-29.296875,-35.64453125,11.71875,0.0,0
1586284766.4555,2,2,31.25,-28.80859375,-34.1796875,31.25,0.0,0
1586284766.4594061,2,2,-30.2734375,-31.25,-24.4140625,7.8125,0.0,0
1586284766.4633124,2,2,-83.984375,-38.57421875,-20.99609375,-38.0859375,0.0,0
1586284766.4672186,2,2,-53.7109375,-41.015625,-30.2734375,-31.25,0.0,0
1586284766.471125,2,2,20.5078125,-33.69140625,-45.8984375,0.48828125,0.0,0
1586284766.4750311,2,2,39.0625,-26.85546875,-42.96875,9.27734375,0.0,0
1586284766.4789374,2,2,-20.99609375,-21.97265625,-27.34375,-18.06640625,0.0,0
1586284766.4828436,2,2,-74.70703125,-22.4609375,-24.4140625,-55.6640625,0.0,0
1586284766.48675,2,2,-52.734375,-28.3203125,-24.90234375,-45.8984375,0.0,0
1586284766.4906561,2,2,13.18359375,-31.25,-29.296875,-1.46484375,0.0,0
1586284766.4945624,2,2,47.8515625,-30.2734375,-25.390625,18.5546875,0.0,0
1586284766.4984686,2,2,3.90625,-37.59765625,-30.76171875,-18.5546875,0.0,0
1586284766.502375,2,2,-58.10546875,-35.64453125,-38.57421875,-51.7578125,0.0,0
1586284766.5062811,2,2,-62.98828125,-32.71484375,-28.80859375,-50.29296875,0.0,0
1586284766.5101874,2,2,-1.953125,-33.203125,-37.59765625,-20.5078125,0.0,0
1586284766.5140936,2,2,34.66796875,-27.83203125,-37.59765625,5.37109375,0.0,0
1586284766.518,2,2,-17.08984375,-29.296875,-32.71484375,-21.97265625,0.0,0
1586284766.5219061,2,2,-88.37890625,-31.73828125,-40.0390625,-55.6640625,0.0,0
1586284766.5258124,2,2,-90.8203125,-31.25,-35.64453125,-52.734375,0.0,0
1586284766.5297186,2,2,-27.34375,-44.43359375,-28.3203125,-16.6015625,0.0,0
1586284766.533625,2,2,17.578125,-43.45703125,-32.2265625,0.9765625,0.0,0
1586284766.5375311,2,2,-14.16015625,-34.66796875,-34.1796875,-18.5546875,0.0,0
1586284766.5414374,2,2,-68.359375,-29.296875,-36.1328125,-40.52734375,0.0,0
1586284766.5453436,2,2,-81.0546875,-24.4140625,-40.0390625,-39.55078125,0.0,0
1586284766.54925,2,2,-23.4375,-24.90234375,-36.62109375,-14.6484375,0.0,0
1586284766.5531561,2,2,35.15625,-25.390625,-24.90234375,13.671875,0.0,0
1586284766.5570624,2,2,7.32421875,-28.3203125,-13.18359375,9.27734375,0.0,0
1586284766.5609686,2,2,-65.91796875,-28.3203125,-31.73828125,-46.875,0.0,0
1586284766.564875,3,2,-85.44921875,-31.25,-38.57421875,-64.453125,0.0,0
1586284766.5687811,3,2,-32.71484375,-35.64453125,-23.92578125,-27.34375,0.0,0
1586284766.5726874,3,2,24.90234375,-28.3203125,-21.97265625,0.9765625,0.0,0
1586284766.5765936,3,2,16.11328125,-26.85546875,-28.3203125,-10.7421875,0.0,0
1586284766.5805,3,2,-54.6875,-38.0859375,-44.43359375,-51.7578125,0.0,0
1586284766.5844061,3,2,-91.796875,-33.203125,-54.19921875,-60.546875,0.0,0
1586284766.5883124,3,2,-40.0390625,-18.5546875,-59.08203125,-30.2734375,0.0,0
1586284766.5922186,3,2,28.80859375,-17.08984375,-44.921875,8.7890625,0.0,0
1586284766.596125,3,2,29.78515625,-19.53125,-11.23046875,15.13671875,0.0,0
1586284766.6000311,3,2,-39.0625,-24.4140625,-8.30078125,-15.625,0.0,0
1586284766.6039374,3,2,-75.1953125,-36.62109375,-14.16015625,-28.80859375,0.0,0
1586284766.6078436,3,2,-26.85546875,-31.73828125,-21.484375,-5.859375,0.0,0
1586284766.61175,3,2,16.11328125,-20.99609375,-28.80859375,24.90234375,0.0,0
1586284766.6156561,3,2,10.25390625,-21.484375,-26.85546875,17.578125,0.0,0
1586284766.6195624,3,2,-34.1796875,-19.04296875,-23.4375,-21.97265625,0.0,0
1586284766.6234686,3,2,-83.49609375,-15.13671875,-29.296875,-47.36328125,0.0,0
1586284766.627375,3,2,-56.15234375,-17.08984375,-32.2265625,-38.57421875,0.0,0
1586284766.6312811,3,2,16.11328125,-21.97265625,-37.59765625,-12.20703125,0.0,0
1586284766.6351874,3,2,35.15625,-19.04296875,-37.59765625,2.9296875,0.0,0
1586284766.6390936,3,2,-12.6953125,-25.390625,-25.87890625,-22.4609375,0.0,0
1586284766.643,3,2,-67.3828125,-25.87890625,-36.62109375,-61.03515625,0.0,0
1586284766.6469061,3,2,-46.875,-19.04296875,-44.921875,-50.29296875,0.0,0
1586284766.6508124,3,2,34.1796875,-18.06640625,-40.52734375,-7.8125,0.0,0
1586284766.6547186,3,2,63.96484375,-18.06640625,-41.50390625,12.6953125,0.0,0
1586284766.658625,3,2,8.30078125,-20.99609375,-37.59765625,-7.32421875,0.0,0
1586284766.6625311,3,2,-47.8515625,-26.85546875,-26.85546875,-29.78515625,0.0,0
1586284766.6664374,3,2,-40.52734375,-29.78515625,-13.671875,-18.06640625,0.0,0
1586284766.6703436,3,2,20.99609375,-20.01953125,-17.578125,9.765625,0.0,0
1586284766.67425,3,2,59.08203125,-21.97265625,-25.390625,23.4375,0.0,0
1586284766.6781561,3,2,17.08984375,-38.57421875,-18.06640625,-1.953125,0.0,0
1586284766.6820624,3,2,-55.6640625,-30.76171875,-21.484375,-39.0625,0.0,0
1586284766.6859686,3,2,-71.77734375,-23.4375,-30.2734375,-42.96875,0.0,0
1586284766.689875,3,2,-9.765625,-34.1796875,-33.203125,-14.16015625,0.0,0
1586284766.6937811,3,2,31.73828125,-30.76171875,-33.203125,13.18359375,0.0,0
1586284766.6976874,3,2,-17.08984375,-35.64453125,-32.2265625,1.46484375,0.0,0
1586284766.7015936,3,2,-89.84375,-37.59765625,-31.73828125,-35.64453125,0.0,0
1586284766.7055,3,2,-100.5859375,-38.0859375,-30.2734375,-45.41015625,0.0,0
1586284766.7094061,3,2,-41.9921875,-36.62109375,-22.94921875,-18.06640625,0.0,0
1586284766.7133124,3,2,12.20703125,-34.1796875,-16.11328125,5.37109375,0.0,0
1586284766.7172186,3,2,-14.16015625,-40.52734375,-24.4140625,-9.765625,0.0,0
1586284766.721125,3,2,-83.984375,-34.66796875,-38.0859375,-47.8515625,0.0,0
1586284766.7250311,3,2,-102.5390625,-31.25,-35.64453125,-55.6640625,0.0,0
1586284766.7289374,3,2,-37.59765625,-33.69140625,-34.66796875,-22.94921875,0.0,0
1586284766.7328436,3,2,31.25,-28.80859375,-33.203125,9.765625,0.0,0
1586284766.73675,3,2,22.94921875,-28.3203125,-32.2265625,9.27734375,0.0,0
1586284766.7406561,3,2,-46.875,-34.1796875,-33.69140625,-30.76171875,0.0,0
1586284766.7445624,3,2,-80.078125,-37.109375,-45.41015625,-54.19921875,0.0,0
1586284766.7484686,3,2,-23.4375,-40.0390625,-41.50390625,-31.25,0.0,0
1586284766.752375,3,2,45.41015625,-37.59765625,-22.94921875,-2.44140625,0.0,0
1586284766.7562811,3,2,37.109375,-39.0625,-25.87890625,-5.859375,0.0,0
1586284766.7601874,3,2,-24.4140625,-34.66796875,-34.66796875,-41.50390625,0.0,0
1586284766.7640936,3,2,-61.5234375,-21.484375,-42.48046875,-62.5,0.0,0
1586284766.768,3,2,-29.78515625,-20.5078125,-44.43359375,-39.0625,0.0,0
1586284766.7719061,3,2,30.2734375,-23.92578125,-29.296875,-7.32421875,0.0,0
1586284766.7758124,3,2,29.78515625,-20.99609375,-29.296875,-6.34765625,0.0,0
1586284766.7797186,3,2,-28.80859375,-14.16015625,-38.0859375,-40.0390625,0.0,0
1586284766.783625,3,2,-68.359375,-19.53125,-38.0859375,-65.4296875,0.0,0
1586284766.7875311,3,2,-38.0859375,-23.92578125,-47.36328125,-37.109375,0.0,0
1586284766.7914374,3,2,30.76171875,-15.13671875,-41.9921875,-1.46484375,0.0,0
1586284766.7953436,3,2,46.875,-28.3203125,-30.76171875,-2.9296875,0.0,0
1586284766.79925,3,2,-21.97265625,-38.0859375,-29.296875,-34.66796875,0.0,0
1586284766.8031561,3,2,-81.0546875,-18.5546875,-32.2265625,-59.08203125,0.0,0
1586284766.8070624,3,2,-50.29296875,-15.13671875,-26.85546875,-41.015625,0.0,0
1586284766.8109686,3,2,16.6015625,-23.4375,-19.53125,-8.30078125,0.0,0
1586284766.814875,3,2,27.83203125,-28.3203125,-27.83203125,4.39453125,0.0,0
1586284766.8187811,3,2,-30.76171875,-28.80859375,-32.2265625,-16.6015625,0.0,0
1586284766.8226874,3,2,-87.40234375,-25.87890625,-35.15625,-49.31640625,0.0,0
1586284766.8265936,3,2,-75.1953125,-22.94921875,-41.015625,-40.0390625,0.0,0
1586284766.8305,3,2,-10.25390625,-19.53125,-40.52734375,8.7890625,0.0,0
1586284766.8344061,3,2,18.06640625,-28.80859375,-38.57421875,22.94921875,0.0,0
1586284766.8383124,3,2,-23.4375,-35.15625,-42.96875,-20.99609375,0.0,0
1586284766.8422186,3,2,-88.37890625,-35.15625,-44.921875,-53.22265625,0.0,0
1586284766.846125,3,2,-89.84375,-29.78515625,-42.96875,-52.734375,0.0,0
1586284766.8500311,3,2,-31.73828125,-30.2734375,-43.9453125,-24.90234375,0.0,0
1586284766.8539374,3,2,15.625,-30.76171875,-30.2734375,4.39453125,0.0,0
1586284766.8578436,3,2,-7.8125,-23.4375,-15.625,-13.671875,0.0,0
1586284766.86175,3,2,-77.1484375,-21.484375,-20.5078125,-49.31640625,0.0,0
1586284766.8656561,3,2,-86.42578125,-36.62109375,-29.296875,-51.7578125,0.0,0
1586284766.8695624,3,2,-18.5546875,-46.875,-34.1796875,-16.11328125,0.0,0
1586284766.8734686,3,2,36.1328125,-34.66796875,-38.0859375,13.671875,0.0,0
1586284766.877375,3,2,0.9765625,-37.109375,-39.55078125,3.41796875,0.0,0
1586284766.8812811,3,2,-63.4765625,-43.45703125,-38.0859375,-41.015625,0.0,0
1586284766.8851874,3,2,-89.84375,-34.66796875,-29.78515625,-58.10546875,0.0,0
1586284766.8890936,3,2,-47.8515625,-32.2265625,-18.06640625,-20.5078125,0.0,0
1586284766.893,3,2,37.109375,-26.85546875,-16.11328125,19.53125,0.0,0
1586284766.8969061,3,2,37.59765625,-24.90234375,-26.3671875,5.859375,0.0,0
1586284766.9008124,3,2,-38.0859375,-34.1796875,-35.15625,-38.0859375,0.0,0
1586284766.9047186,3,2,-77.63671875,-43.45703125,-32.71484375,-55.17578125,0.0,0
1586284766.908625,3,2,-36.62109375,-39.55078125,-21.97265625,-28.3203125,0.0,0
1586284766.9125311,3,2,28.3203125,-27.83203125,-17.578125,0.0,0.0,0
1586284766.9164374,3,2,21.97265625,-30.2734375,-22.94921875,-13.18359375,0.0,0
1586284766.9203436,3,2,-43.45703125,-38.57421875,-28.3203125,-45.41015625,0.0,0
1586284766.92425,3,2,-86.9140625,-34.66796875,-26.3671875,-65.4296875,0.0,0
1586284766.9281561,3,2,-47.36328125,-23.92578125,-29.78515625,-44.921875,0.0,0
1586284766.9320624,3,2,26.85546875,-20.01953125,-28.3203125,0.9765625,0.0,0
1586284766.9359686,3,2,25.390625,-22.4609375,-20.5078125,5.37109375,0.0,0
1586284766.939875,3,2,-42.48046875,-30.2734375,-22.94921875,-29.296875,0.0,0
1586284766.9437811,3,2,-80.078125,-26.85546875,-37.59765625,-47.36328125,0.0,0
1586284766.9476874,3,2,-34.66796875,-15.625,-35.15625,-18.5546875,0.0,0
1586284766.9515936,3,2,39.55078125,-16.11328125,-20.5078125,20.99609375,0.0,0
1586284766.9555,3,2,51.26953125,-21.97265625,-20.5078125,25.87890625,0.0,0
1586284766.9594061,3,2,-6.8359375,-27.83203125,-23.92578125,-4.39453125,0.0,0
1586284766.9633124,3,2,-64.94140625,-23.4375,-40.0390625,-38.0859375,0.0,0
1586284766.9672186,3,2,-45.8984375,-20.99609375,-41.9921875,-31.73828125,0.0,0
1586284766.971125,3,2,31.25,-34.66796875,-33.69140625,11.23046875,0.0,0
1586284766.9750311,3,2,54.6875,-34.66796875,-36.62109375,20.01953125,0.0,0
1586284766.9789374,3,2,-6.34765625,-32.2265625,-31.73828125,-13.18359375,0.0,0
1586284766.9828436,3,2,-62.98828125,-41.50390625,-23.92578125,-37.109375,0.0,0
1586284766.98675,3,2,-52.24609375,-35.15625,-29.296875,-36.62109375,0.0,0
1586284766.9906561,3,2,21.97265625,-14.6484375,-33.69140625,-2.9296875,0.0,0
1586284766.9945624,3,2,52.734375,-27.34375,-26.85546875,2.9296875,0.0,0
1586284766.9984686,3,2,-8.7890625,-41.50390625,-34.66796875,-34.66796875,0.0,0
1586284767.002375,3,2,-73.73046875,-28.3203125,-41.9921875,-59.08203125,0.0,0
1586284767.0062811,3,2,-65.91796875,-19.04296875,-34.1796875,-49.8046875,0.0,0
1586284767.0101874,3,2,-1.953125,-40.0390625,-34.1796875,-7.8125,0.0,0
1586284767.0140936,3,2,39.55078125,-43.9453125,-39.0625,9.765625,0.0,0
1586284767.018,3,2,1.953125,-27.83203125,-39.0625,-22.94921875,0.0,0
1586284767.0219061,3,2,-71.2890625,-33.69140625,-39.0625,-59.5703125,0.0,0
1586284767.0258124,3,2,-74.70703125,-26.85546875,-41.9921875,-60.05859375,0.0,0
1586284767.0297186,3,2,-9.27734375,-13.671875,-36.62109375,-13.18359375,0.0,0
1586284767.033625,3,2,41.50390625,-15.13671875,-20.99609375,27.83203125,0.0,0
1586284767.0375311,3,2,18.5546875,-27.83203125,-15.625,10.25390625,0.0,0
1586284767.0414374,3,2,-48.33984375,-39.0625,-26.3671875,-32.2265625,0.0,0
1586284767.0453436,3,2,-69.82421875,-39.55078125,-38.57421875,-48.33984375,0.0,0
1586284767.04925,3,2,-12.20703125,-34.1796875,-41.9921875,-21.97265625,0.0,0
1586284767.0531561,3,2,44.43359375,-35.64453125,-36.62109375,12.6953125,0.0,0
1586284767.0570624,3,2,19.53125,-32.71484375,-27.83203125,3.41796875,0.0,0
1586284767.0609686,3,2,-57.12890625,-29.296875,-30.76171875,-34.1796875,0.0,0
1586284767.064875,3,2,-83.49609375,-23.4375,-51.26953125,-59.08203125,0.0,0
1586284767.0687811,3,2,-32.2265625,-19.53125,-37.59765625,-38.0859375,0.0,0
1586284767.0726874,3,2,24.4140625,-20.5078125,-25.87890625,0.9765625,0.0,0
1586284767.0765936,3,2,24.90234375,-24.90234375,-27.83203125,-1.46484375,0.0,0
1586284767.0805,3,2,-49.8046875,-34.1796875,-25.87890625,-29.78515625,0.0,0
1586284767.0844061,3,2,-101.07421875,-36.62109375,-40.0390625,-51.26953125,0.0,0
1586284767.0883124,3,2,-39.55078125,-36.62109375,-39.55078125,-36.1328125,0.0,0
1586284767.0922186,3,2,33.203125,-27.83203125,-39.55078125,-1.46484375,0.0,0
1586284767.096125,3,2,34.1796875,-20.99609375,-51.26953125,-7.8125,0.0,0
1586284767.1000311,3,2,-30.76171875,-25.87890625,-36.62109375,-34.66796875,0.0,0
1586284767.1039374,3,2,-77.63671875,-28.3203125,-29.296875,-49.8046875,0.0,0
1586284767.1078436,3,2,-39.55078125,-34.1796875,-31.73828125,-28.80859375,0.0,0
1586284767.11175,3,2,38.0859375,-22.94921875,-27.83203125,20.99609375,0.0,0
1586284767.1156561,3,2,56.640625,-12.6953125,-12.6953125,26.85546875,0.0,0
1586284767.1195624,3,2,-8.7890625,-22.94921875,-6.8359375,-12.20703125,0.0,0
1586284767.1234686,3,2,-67.3828125,-27.34375,-24.4140625,-39.55078125,0.0,0
1586284767.127375,3,2,-43.9453125,-41.50390625,-26.85546875,-30.76171875,0.0,0
1586284767.1312811,3,2,22.4609375,-39.55078125,-23.92578125,2.44140625,0.0,0
1586284767.1351874,3,2,44.921875,-24.90234375,-28.3203125,13.18359375,0.0,0
1586284767.1390936,3,2,-13.18359375,-18.06640625,-32.71484375,-17.578125,0.0,0
1586284767.143,3,2,-72.75390625,-12.20703125,-46.38671875,-45.41015625,0.0,0
1586284767.1469061,3,2,-56.640625,-19.53125,-51.26953125,-38.0859375,0.0,0
1586284767.1508124,3,2,7.8125,-27.34375,-34.66796875,-2.9296875,0.0,0
1586284767.1547186,3,2,41.9921875,-32.2265625,-26.3671875,8.30078125,0.0,0
1586284767.158625,3,2,-0.48828125,-40.0390625,-17.578125,-18.5546875,0.0,0
1586284767.1625311,3,2,-63.4765625,-34.66796875,-14.6484375,-46.38671875,0.0,0
1586284767.1664374,3,2,-61.03515625,-23.4375,-29.78515625,-45.41015625,0.0,0
1586284767.1703436,3,2,1.46484375,-16.6015625,-32.2265625,-6.8359375,0.0,0
1586284767.17425,3,2,46.38671875,-9.765625,-32.71484375,8.7890625,0.0,0
1586284767.1781561,3,2,-10.7421875,-16.11328125,-39.55078125,-22.94921875,0.0,0
1586284767.1820624,3,2,-94.7265625,-26.85546875,-42.96875,-65.91796875,0.0,0
1586284767.1859686,3,2,-78.61328125,-25.87890625,-38.0859375,-63.4765625,0.0,0
1586284767.189875,3,2,-9.27734375,-20.5078125,-26.3671875,-12.6953125,0.0,0
1586284767.1937811,3,2,38.0859375,-30.76171875,-28.80859375,3.41796875,0.0,0
1586284767.1976874,3,2,1.46484375,-36.1328125,-38.0859375,-18.06640625,0.0,0
1586284767.2015936,3,2,-65.4296875,-26.85546875,-38.57421875,-38.57421875,0.0,0
1586284767.2055,3,2,-78.125,-31.73828125,-34.66796875,-42.96875,0.0,0
1586284767.2094061,3,2,-20.99609375,-38.0859375,-24.90234375,-13.671875,0.0,0
1586284767.2133124,3,2,38.57421875,-32.2265625,-27.34375,4.8828125,0.0,0
1586284767.2172186,3,2,15.13671875,-25.390625,-31.73828125,-14.16015625,0.0,0
1586284767.221125,3,2,-58.59375,-25.390625,-33.203125,-45.41015625,0.0,0
1586284767.2250311,3,2,-78.61328125,-36.62109375,-24.90234375,-56.640625,0.0,0
1586284767.2289374,3,2,-24.4140625,-41.50390625,-28.80859375,-25.390625,0.0,0
1586284767.2328436,3,2,32.2265625,-38.0859375,-41.9921875,8.30078125,0.0,0
1586284767.23675,3,2,23.92578125,-29.296875,-31.73828125,1.953125,0.0,0
1586284767.2406561,3,2,-45.41015625,-30.2734375,-23.92578125,-29.78515625,0.0,0
1586284767.2445624,3,2,-83.984375,-35.15625,-19.04296875,-41.015625,0.0,0
1586284767.2484686,3,2,-36.1328125,-24.4140625,-27.83203125,-21.484375,0.0,0
1586284767.252375,3,2,32.71484375,-27.34375,-47.8515625,10.7421875,0.0,0
1586284767.2562811,3,2,29.296875,-35.64453125,-50.78125,4.39453125,0.0,0
1586284767.2601874,3,2,-35.15625,-31.73828125,-38.57421875,-37.59765625,0.0,0
1586284767.2640936,3,2,-80.078125,-36.1328125,-36.62109375,-50.78125,0.0,0
1586284767.268,3,2,-41.50390625,-42.96875,-44.921875,-29.296875,0.0,0
1586284767.2719061,3,2,10.25390625,-38.0859375,-35.15625,0.9765625,0.0,0
1586284767.2758124,3,2,20.5078125,-33.69140625,-19.04296875,12.20703125,0.0,0
1586284767.2797186,3,2,-23.4375,-43.9453125,-23.4375,-29.296875,0.0,0
1586284767.283625,3,2,-75.1953125,-42.96875,-24.90234375,-64.453125,0.0,0
1586284767.2875311,3,2,-39.55078125,-32.71484375,-28.3203125,-40.52734375,0.0,0
1586284767.2914374,3,2,23.92578125,-37.109375,-43.9453125,-8.30078125,0.0,0
1586284767.2953436,3,2,35.64453125,-37.109375,-40.0390625,8.7890625,0.0,0
1586284767.29925,3,2,-23.4375,-31.73828125,-30.2734375,-22.94921875,0.0,0
1586284767.3031561,3,2,-83.984375,-29.78515625,-34.1796875,-62.5,0.0,0
1586284767.3070624,3,2,-69.82421875,-34.1796875,-39.0625,-44.921875,0.0,0
1586284767.3109686,3,2,9.27734375,-39.0625,-25.87890625,-0.9765625,0.0,0
1586284767.314875,3,2,24.4140625,-39.55078125,-28.80859375,19.04296875,0.0,0
1586284767.3187811,3,2,-44.43359375,-34.1796875,-47.8515625,-9.27734375,0.0,0
1586284767.3226874,3,2,-83.0078125,-31.73828125,-27.83203125,-47.36328125,0.0,0
1586284767.3265936,3,2,-65.91796875,-33.203125,-8.7890625,-43.45703125,0.0,0
1586284767.3305,3,2,5.859375,-25.87890625,-13.671875,-6.34765625,0.0,0
1586284767.3344061,3,2,45.41015625,-26.3671875,-18.06640625,11.71875,0.0,0
1586284767.3383124,3,2,-2.44140625,-36.1328125,-26.3671875,-21.97265625,0.0,0
1586284767.3422186,3,2,-57.12890625,-42.48046875,-34.66796875,-47.8515625,0.0,0
1586284767.346125,3,2,-57.12890625,-41.9921875,-38.57421875,-46.38671875,0.0,0
1586284767.3500311,3,2,-5.37109375,-27.83203125,-38.57421875,-14.6484375,0.0,0
1586284767.3539374,3,2,45.8984375,-19.04296875,-38.57421875,24.4140625,0.0,0
1586284767.3578436,3,2,13.671875,-30.2734375,-40.52734375,5.859375,0.0,0
1586284767.36175,3,2,-56.640625,-34.66796875,-35.64453125,-34.1796875,0.0,0
1586284767.3656561,3,2,-59.5703125,-28.80859375,-36.1328125,-47.36328125,0.0,0
1586284767.3695624,3,2,-6.34765625,-29.78515625,-37.109375,-18.5546875,0.0,0
1586284767.3734686,3,2,36.62109375,-35.15625,-35.15625,14.6484375,0.0,0
1586284767.377375,3,2,27.83203125,-31.73828125,-33.203125,-2.44140625,0.0,0
1586284767.3812811,3,2,-28.80859375,-28.3203125,-28.3203125,-33.203125,0.0,0
1586284767.3851874,3,2,-59.5703125,-36.62109375,-30.76171875,-34.1796875,0.0,0
1586284767.3890936,3,2,-11.71875,-50.29296875,-30.76171875,-5.859375,0.0,0
1586284767.393,3,2,42.48046875,-45.41015625,-33.69140625,19.04296875,0.0,0
1586284767.3969061,3,2,22.94921875,-33.69140625,-44.43359375,2.44140625,0.0,0
1586284767.4008124,3,2,-52.24609375,-34.1796875,-39.55078125,-41.9921875,0.0,0
1586284767.4047186,3,2,-88.8671875,-35.15625,-27.83203125,-58.10546875,0.0,0
1586284767.408625,3,2,-43.9453125,-36.1328125,-27.34375,-27.34375,0.0,0
1586284767.4125311,3,2,24.90234375,-36.62109375,-23.4375,12.6953125,0.0,0
1586284767.4164374,3,2,21.484375,-31.25,-19.53125,18.06640625,0.0,0
1586284767.4203436,3,2,-48.828125,-30.76171875,-31.73828125,-18.5546875,0.0,0
1586284767.42425,3,2,-83.0078125,-29.78515625,-40.52734375,-35.64453125,0.0,0
1586284767.4281561,3,2,-37.59765625,-29.78515625,-43.9453125,-15.625,0.0,0
1586284767.4320624,3,2,30.2734375,-32.71484375,-40.0390625,11.23046875,0.0,0
1586284767.4359686,3,2,41.9921875,-28.3203125,-26.85546875,13.18359375,0.0,0
1586284767.439875,3,2,-20.5078125,-29.78515625,-31.25,-27.34375,0.0,0
1586284767.4437811,3,2,-73.73046875,-25.390625,-41.50390625,-57.12890625,0.0,0
1586284767.4476874,3,2,-62.01171875,-20.5078125,-34.1796875,-35.64453125,0.0,0
1586284767.4515936,3,2,6.8359375,-29.296875,-30.2734375,6.34765625,0.0,0
1586284767.4555,3,2,48.33984375,-22.94921875,-26.3671875,19.53125,0.0,0
1586284767.4594061,3,2,-3.90625,-17.578125,-32.71484375,-8.7890625,0.0,0
1586284767.4633124,3,2,-62.5,-28.80859375,-30.2734375,-39.0625,0.0,0
1586284767.4672186,3,2,-50.78125,-36.1328125,-26.3671875,-39.0625,0.0,0
1586284767.471125,3,2,8.30078125,-37.59765625,-26.85546875,-15.625,0.0,0
1586284767.4750311,3,2,28.3203125,-36.62109375,-22.94921875,-5.37109375,0.0,0
1586284767.4789374,3,2,-20.5078125,-35.15625,-32.2265625,-32.2265625,0.0,0
1586284767.4828436,3,2,-76.171875,-35.15625,-28.3203125,-59.5703125,0.0,0
1586284767.48675,3,2,-70.3125,-37.109375,-22.4609375,-42.48046875,0.0,0
1586284767.4906561,3,2,-14.6484375,-36.62109375,-23.92578125,-3.90625,0.0,0
1586284767.4945624,3,2,14.6484375,-36.62109375,-29.78515625,20.01953125,0.0,0
1586284767.4984686,3,2,-19.53125,-32.2265625,-40.0390625,-2.44140625,0.0,0
1586284767.502375,3,2,-75.1953125,-29.296875,-38.0859375,-39.0625,0.0,0
1586284767.5062811,3,2,-69.3359375,-31.25,-31.25,-38.57421875,0.0,0
1586284767.5101874,3,2,-3.41796875,-25.390625,-20.99609375,-0.9765625,0.0,0
1586284767.5140936,3,2,49.8046875,-23.92578125,-25.390625,30.2734375,0.0,0
1586284767.518,3,2,12.6953125,-29.78515625,-33.203125,22.4609375,0.0,0
1586284767.5219061,3,2,-73.73046875,-33.69140625,-30.2734375,-20.99609375,0.0,0
1586284767.5258124,3,2,-69.3359375,-27.83203125,-30.76171875,-39.0625,0.0,0
1586284767.5297186,3,2,0.48828125,-24.90234375,-31.73828125,-4.8828125,0.0,0
1586284767.533625,3,2,55.6640625,-31.25,-11.71875,23.4375,0.0,0
1586284767.5375311,3,2,33.203125,-39.0625,-10.25390625,9.765625,0.0,0
1586284767.5414374,3,2,-47.8515625,-41.9921875,-33.69140625,-34.66796875,0.0,0
1586284767.5453436,3,2,-73.2421875,-24.4140625,-33.203125,-45.41015625,0.0,0
1586284767.54925,3,2,-20.5078125,-21.484375,-29.78515625,-13.671875,0.0,0
1586284767.5531561,3,2,40.52734375,-31.25,-37.109375,19.53125,0.0,0
1586284767.5570624,3,2,21.97265625,-24.90234375,-23.92578125,11.23046875,0.0,0
1586284767.5609686,3,2,-42.96875,-25.87890625,-11.23046875,-36.1328125,0.0,0
1586284767.564875,3,2,-62.01171875,-29.296875,-25.87890625,-54.6875,0.0,0
1586284767.5687811,3,2,-20.5078125,-29.296875,-29.78515625,-25.87890625,0.0,0
1586284767.5726874,3,2,35.15625,-28.3203125,-22.94921875,5.859375,0.0,0
1586284767.5765936,3,2,23.92578125,-38.57421875,-27.83203125,-7.32421875,0.0,0
1586284767.5805,3,2,-42.96875,-45.8984375,-26.85546875,-40.52734375,0.0,0
1586284767.5844061,3,2,-76.66015625,-34.1796875,-17.08984375,-51.7578125,0.0,0
1586284767.5883124,3,2,-45.8984375,-31.25,-15.13671875,-34.66796875,0.0,0
1586284767.5922186,3,2,10.25390625,-32.2265625,-19.04296875,-2.44140625,0.0,0
1586284767.596125,3,2,17.578125,-34.1796875,-25.390625,-1.46484375,0.0,0
1586284767.6000311,3,2,-43.45703125,-31.25,-28.80859375,-32.2265625,0.0,0
1586284767.6039374,3,2,-89.84375,-29.78515625,-26.85546875,-55.6640625,0.0,0
1586284767.6078436,3,2,-50.78125,-34.66796875,-33.69140625,-36.1328125,0.0,0
1586284767.61175,3,2,8.30078125,-23.4375,-35.64453125,2.9296875,0.0,0
1586284767.6156561,3,2,4.39453125,-24.4140625,-30.76171875,4.8828125,0.0,0
1586284767.6195624,3,2,-29.296875,-48.828125,-32.71484375,-32.2265625,0.0,0
1586284767.6234686,3,2,-68.359375,-46.875,-35.64453125,-62.01171875,0.0,0
1586284767.627375,3,2,-51.7578125,-33.203125,-34.1796875,-44.921875,0.0,0
1586284767.6312811,3,2,20.99609375,-33.69140625,-28.80859375,0.0,0.0,0
1586284767.6351874,3,2,49.8046875,-20.01953125,-24.4140625,10.7421875,0.0,0
1586284767.6390936,3,2,-9.27734375,-19.04296875,-25.87890625,-15.13671875,0.0,0
1586284767.643,3,2,-78.125,-32.71484375,-31.25,-42.48046875,0.0,0
1586284767.6469061,3,2,-70.3125,-22.94921875,-35.15625,-37.109375,0.0,0
1586284767.6508124,3,2,-4.39453125,-20.01953125,-24.90234375,1.953125,0.0,0
1586284767.6547186,3,2,35.64453125,-23.4375,-19.53125,18.5546875,0.0,0
1586284767.658625,3,2,-14.6484375,-26.3671875,-33.69140625,-16.6015625,0.0,0
1586284767.6625311,3,2,-88.37890625,-40.0390625,-41.50390625,-51.26953125,0.0,0
1586284767.6664374,3,2,-74.70703125,-32.2265625,-31.73828125,-44.43359375,0.0,0
1586284767.6703436,3,2,-3.41796875,-24.4140625,-31.73828125,-1.953125,0.0,0
1586284767.67425,3,2,20.99609375,-27.83203125,-38.57421875,24.4140625,0.0,0
1586284767.6781561,3,2,-3.90625,-23.92578125,-31.25,-5.37109375,0.0,0
1586284767.6820624,3,2,-56.15234375,-23.92578125,-31.25,-36.62109375,0.0,0
1586284767.6859686,3,2,-69.82421875,-22.4609375,-29.296875,-31.73828125,0.0,0
1586284767.689875,3,2,-6.34765625,-20.99609375,-30.76171875,-4.8828125,0.0,0
1586284767.6937811,3,2,43.45703125,-20.5078125,-13.671875,14.16015625,0.0,0
1586284767.6976874,3,2,13.18359375,-22.94921875,-7.8125,-2.9296875,0.0,0
1586284767.7015936,3,2,-68.84765625,-23.4375,-34.1796875,-44.43359375,0.0,0
1586284767.7055,3,2,-92.28515625,-28.3203125,-33.203125,-49.8046875,0.0,0
1586284767.7094061,3,2,-20.5078125,-29.296875,-32.71484375,-11.23046875,0.0,0
1586284767.7133124,3,2,30.76171875,-22.94921875,-34.66796875,3.41796875,0.0,0
1586284767.7172186,3,2,15.13671875,-24.90234375,-31.73828125,-8.30078125,0.0,0
1586284767.721125,3,2,-65.4296875,-31.73828125,-32.71484375,-36.1328125,0.0,0
1586284767.7250311,3,2,-105.95703125,-28.3203125,-29.296875,-52.24609375,0.0,0
1586284767.7289374,3,2,-22.94921875,-34.1796875,-31.25,-21.97265625,0.0,0
1586284767.7328436,3,2,42.96875,-36.1328125,-42.48046875,7.8125,0.0,0
1586284767.73675,3,2,21.484375,-14.6484375,-37.59765625,-0.9765625,0.0,0
1586284767.7406561,3,2,-37.109375,-11.71875,-14.16015625,-44.43359375,0.0,0
1586284767.7445624,3,2,-79.58984375,-27.34375,-13.18359375,-59.5703125,0.0,0
1586284767.7484686,3,2,-46.38671875,-31.25,-34.66796875,-25.390625,0.0,0
1586284767.752375,3,2,31.25,-27.34375,-38.57421875,9.765625,0.0,0
1586284767.7562811,3,2,30.2734375,-24.90234375,-31.25,0.9765625,0.0,0
1586284767.7601874,3,2,-43.45703125,-23.4375,-33.203125,-33.203125,0.0,0
1586284767.7640936,3,2,-89.84375,-27.34375,-26.85546875,-49.8046875,0.0,0
1586284767.768,3,2,-64.453125,-44.921875,-24.90234375,-42.96875,0.0,0
1586284767.7719061,3,2,-0.48828125,-45.41015625,-36.62109375,-15.625,0.0,0
1586284767.7758124,3,2,36.1328125,-30.76171875,-25.87890625,5.859375,0.0,0
1586284767.7797186,3,2,-22.4609375,-24.4140625,-15.625,-20.01953125,0.0,0
1586284767.783625,3,2,-80.078125,-20.5078125,-20.01953125,-61.5234375,0.0,0
1586284767.7875311,3,2,-51.7578125,-19.04296875,-33.203125,-49.31640625,0.0,0
1586284767.7914374,3,2,14.16015625,-25.87890625,-35.64453125,-6.8359375,0.0,0
1586284767.7953436,3,2,24.90234375,-26.3671875,-27.34375,10.7421875,0.0,0
1586284767.79925,3,2,-33.69140625,-32.71484375,-27.34375,-16.11328125,0.0,0
1586284767.8031561,3,2,-83.49609375,-46.875,-29.78515625,-56.15234375,0.0,0
1586284767.8070624,3,2,-73.73046875,-34.66796875,-39.55078125,-50.29296875,0.0,0
1586284767.8109686,3,2,-4.8828125,-20.99609375,-42.48046875,-6.34765625,0.0,0
1586284767.814875,3,2,26.85546875,-22.94921875,-32.71484375,7.32421875,0.0,0
1586284767.8187811,3,2,-20.5078125,-23.4375,-29.296875,-22.4609375,0.0,0
1586284767.8226874,3,2,-60.05859375,-23.92578125,-34.66796875,-52.24609375,0.0,0
1586284767.8265936,3,2,-58.59375,-19.04296875,-29.296875,-42.96875,0.0,0
1586284767.8305,3,2,6.34765625,-23.92578125,-28.3203125,-4.39453125,0.0,0
1586284767.8344061,3,2,58.10546875,-36.62109375,-41.015625,11.23046875,0.0,0
1586284767.8383124,3,2,18.06640625,-36.62109375,-41.9921875,-15.13671875,0.0,0
1586284767.8422186,3,2,-57.12890625,-13.671875,-41.015625,-56.640625,0.0,0
1586284767.846125,3,2,-72.265625,-9.765625,-38.0859375,-56.640625,0.0,0
1586284767.8500311,3,2,-11.23046875,-29.296875,-35.64453125,-14.6484375,0.0,0
1586284767.8539374,3,2,28.3203125,-29.78515625,-31.73828125,16.11328125,0.0,0
1586284767.8578436,3,2,-11.71875,-22.94921875,-33.203125,0.48828125,0.0,0
1586284767.86175,3,2,-74.70703125,-23.4375,-26.85546875,-31.73828125,0.0,0
1586284767.8656561,3,2,-86.42578125,-28.3203125,-16.11328125,-39.0625,0.0,0
1586284767.8695624,3,2,-26.85546875,-32.2265625,-20.5078125,-16.11328125,0.0,0
1586284767.8734686,3,2,30.76171875,-33.69140625,-16.6015625,13.671875,0.0,0
1586284767.877375,3,2,14.16015625,-41.9921875,-25.87890625,3.90625,0.0,0
1586284767.8812811,3,2,-58.59375,-33.69140625,-35.64453125,-41.015625,0.0,0
1586284767.8851874,3,2,-94.7265625,-24.4140625,-33.203125,-51.7578125,0.0,0
1586284767.8890936,3,2,-33.69140625,-34.66796875,-35.64453125,-20.99609375,0.0,0
1586284767.893,3,2,33.203125,-35.15625,-37.109375,1.46484375,0.0,0
1586284767.8969061,3,2,21.484375,-27.34375,-34.1796875,-6.8359375,0.0,0
1586284767.9008124,3,2,-41.50390625,-29.296875,-38.0859375,-42.48046875,0.0,0
1586284767.9047186,3,2,-76.171875,-31.25,-34.1796875,-62.5,0.0,0
1586284767.908625,3,2,-31.73828125,-29.78515625,-26.3671875,-33.203125,0.0,0
1586284767.9125311,3,2,39.0625,-26.85546875,-43.9453125,6.34765625,0.0,0
1586284767.9164374,3,2,43.45703125,-23.4375,-46.875,8.30078125,0.0,0
1586284767.9203436,3,2,-24.4140625,-16.6015625,-35.15625,-25.390625,0.0,0
1586284767.92425,3,2,-80.56640625,-20.01953125,-22.4609375,-56.640625,0.0,0
1586284767.9281561,3,2,-45.41015625,-20.5078125,-17.08984375,-31.25,0.0,0
1586284767.9320624,3,2,21.484375,-25.87890625,-31.25,10.25390625,0.0,0
1586284767.9359686,3,2,5.37109375,-41.015625,-44.43359375,13.18359375,0.0,0
1586284767.939875,3,2,-44.43359375,-47.36328125,-42.48046875,-18.06640625,0.0,0
1586284767.9437811,3,2,-80.078125,-35.64453125,-34.66796875,-53.7109375,0.0,0
1586284767.9476874,3,2,-52.24609375,-31.73828125,-29.296875,-36.1328125,0.0,0
1586284767.9515936,3,2,21.97265625,-38.0859375,-33.69140625,6.34765625,0.0,0
1586284767.9555,3,2,47.36328125,-30.76171875,-38.57421875,10.25390625,0.0,0
1586284767.9594061,3,2,-6.34765625,-33.69140625,-46.875,-21.97265625,0.0,0
1586284767.9633124,3,2,-74.70703125,-32.71484375,-45.41015625,-48.828125,0.0,0
1586284767.9672186,3,2,-58.59375,-22.94921875,-38.0859375,-29.296875,0.0,0
1586284767.971125,3,2,15.625,-25.87890625,-44.921875,1.46484375,0.0,0
1586284767.9750311,3,2,16.6015625,-30.2734375,-47.8515625,7.8125,0.0,0
1586284767.9789374,3,2,-38.57421875,-32.71484375,-47.36328125,-18.06640625,0.0,0
1586284767.9828436,3,2,-64.453125,-27.83203125,-43.45703125,-43.45703125,0.0,0
1586284767.98675,3,2,-40.52734375,-18.06640625,-34.66796875,-33.69140625,0.0,0
1586284767.9906561,3,2,28.80859375,-22.4609375,-30.76171875,0.0,0.0,0
1586284767.9945624,3,2,56.15234375,-33.203125,-30.2734375,19.04296875,0.0,0
1586284767.9984686,3,2,0.9765625,-33.203125,-33.69140625,-4.8828125,0.0,0
1586284768.002375,3,2,-73.2421875,-31.73828125,-37.59765625,-40.0390625,0.0,0
1586284768.0062811,3,2,-82.51953125,-33.203125,-37.109375,-47.8515625,0.0,0
1586284768.0101874,3,2,-19.53125,-26.85546875,-32.71484375,-11.23046875,0.0,0
1586284768.0140936,3,2,40.52734375,-20.01953125,-29.78515625,26.85546875,0.0,0
1586284768.018,3,2,4.39453125,-26.3671875,-28.3203125,0.9765625,0.0,0
1586284768.0219061,3,2,-72.75390625,-33.69140625,-29.78515625,-53.22265625,0.0,0
1586284768.0258124,3,2,-99.609375,-33.203125,-50.29296875,-62.01171875,0.0,0
1586284768.0297186,3,2,-36.1328125,-39.0625,-47.8515625,-20.01953125,0.0,0
1586284768.033625,3,2,40.52734375,-48.33984375,-39.55078125,6.34765625,0.0,0
1586284768.0375311,3,2,14.6484375,-36.1328125,-39.0625,-14.16015625,0.0,0
1586284768.0414374,3,2,-61.03515625,-26.3671875,-30.76171875,-49.31640625,0.0,0
1586284768.0453436,3,2,-75.1953125,-40.52734375,-20.5078125,-56.640625,0.0,0
1586284768.04925,3,2,-13.671875,-29.78515625,-21.484375,-23.4375,0.0,0
1586284768.0531561,3,2,41.9921875,-17.578125,-29.78515625,4.8828125,0.0,0
1586284768.0570624,3,2,31.73828125,-20.01953125,-28.3203125,-10.25390625,0.0,0
1586284768.0609686,3,2,-43.9453125,-23.92578125,-42.96875,-49.31640625,0.0,0
1586284768.064875,3,2,-90.33203125,-25.390625,-41.9921875,-59.5703125,0.0,0
1586284768.0687811,3,2,-39.0625,-29.296875,-23.4375,-32.71484375,0.0,0
1586284768.0726874,3,2,24.4140625,-28.80859375,-24.90234375,2.9296875,0.0,0
1586284768.0765936,3,2,6.34765625,-25.87890625,-37.59765625,-2.9296875,0.0,0
1586284768.0805,3,2,-42.48046875,-27.83203125,-34.66796875,-39.55078125,0.0,0
1586284768.0844061,3,2,-66.89453125,-19.53125,-13.671875,-60.05859375,0.0,0
1586284768.0883124,3,2,-38.57421875,-26.3671875,-27.34375,-41.015625,0.0,0
1586284768.0922186,3,2,28.80859375,-35.64453125,-37.59765625,-0.48828125,0.0,0
1586284768.096125,3,2,39.55078125,-30.76171875,-26.3671875,0.0,0.0,0
1586284768.1000311,3,2,-29.78515625,-29.296875,-28.80859375,-44.43359375,0.0,0
1586284768.1039374,3,2,-85.44921875,-24.4140625,-26.3671875,-67.87109375,0.0,0
1586284768.1078436,3,2,-46.875,-22.4609375,-18.06640625,-54.19921875,0.0,0
1586284768.11175,3,2,25.87890625,-29.78515625,-26.3671875,-7.8125,0.0,0
1586284768.1156561,3,2,47.36328125,-42.48046875,-29.78515625,15.625,0.0,0
1586284768.1195624,3,2,0.48828125,-40.52734375,-22.94921875,-5.859375,0.0,0
1586284768.1234686,3,2,-74.70703125,-28.3203125,-20.5078125,-29.78515625,0.0,0
1586284768.127375,3,2,-72.265625,-24.4140625,-23.92578125,-30.2734375,0.0,0
1586284768.1312811,3,2,15.13671875,-25.390625,-28.80859375,-3.41796875,0.0,0
1586284768.1351874,3,2,44.43359375,-28.3203125,-34.1796875,12.20703125,0.0,0
1586284768.1390936,3,2,-14.16015625,-23.92578125,-32.2265625,-11.23046875,0.0,0
1586284768.143,3,2,-77.63671875,-28.3203125,-24.90234375,-47.36328125,0.0,0
1586284768.1469061,3,2,-73.2421875,-33.69140625,-18.06640625,-40.52734375,0.0,0
1586284768.1508124,3,2,-10.7421875,-31.73828125,-13.671875,0.9765625,0.0,0
1586284768.1547186,3,2,29.296875,-28.3203125,-8.7890625,21.97265625,0.0,0
1586284768.158625,3,2,-11.23046875,-21.97265625,-18.06640625,-3.90625,0.0,0
1586284768.1625311,3,2,-74.70703125,-27.34375,-34.1796875,-39.55078125,0.0,0
1586284768.1664374,3,2,-67.3828125,-41.50390625,-25.87890625,-36.1328125,0.0,0
1586284768.1703436,3,2,6.34765625,-31.25,-32.2265625,-10.7421875,0.0,0
1586284768.17425,3,2,46.38671875,-19.04296875,-33.203125,7.32421875,0.0,0
1586284768.1781561,3,2,-3.41796875,-25.390625,-36.1328125,-3.41796875,0.0,0
1586284768.1820624,3,2,-58.10546875,-31.73828125,-46.875,-31.25,0.0,0
1586284768.1859686,3,2,-62.5,-28.80859375,-42.96875,-40.0390625,0.0,0
1586284768.189875,3,2,-3.41796875,-30.76171875,-41.015625,-8.7890625,0.0,0
1586284768.1937811,3,2,51.7578125,-37.59765625,-38.0859375,20.5078125,0.0,0
1586284768.1976874,3,2,26.85546875,-42.96875,-36.1328125,-4.39453125,0.0,0
1586284768.2015936,3,2,-47.36328125,-24.90234375,-30.2734375,-48.33984375,0.0,0
1586284768.2055,3,2,-74.21875,-10.7421875,-30.2734375,-53.7109375,0.0,0
1586284768.2094061,3,2,-28.80859375,-30.76171875,-45.41015625,-27.34375,0.0,0
1586284768.2133124,3,2,33.203125,-41.50390625,-43.45703125,1.46484375,0.0,0
1586284768.2172186,3,2,22.4609375,-41.50390625,-35.64453125,-3.41796875,0.0,0
1586284768.221125,3,2,-53.7109375,-37.109375,-41.50390625,-41.9921875,0.0,0
1586284768.2250311,3,2,-88.8671875,-31.73828125,-41.50390625,-47.8515625,0.0,0
1586284768.2289374,3,2,-38.0859375,-34.1796875,-29.296875,-9.27734375,0.0,0
1586284768.2328436,3,2,30.76171875,-34.66796875,-26.3671875,21.484375,0.0,0
1586284768.23675,3,2,28.3203125,-31.25,-33.69140625,6.8359375,0.0,0
1586284768.2406561,3,2,-45.8984375,-38.57421875,-32.71484375,-38.57421875,0.0,0
1586284768.2445624,3,2,-97.16796875,-43.45703125,-37.109375,-59.08203125,0.0,0
1586284768.2484686,3,2,-58.10546875,-32.71484375,-31.25,-31.25,0.0,0
1586284768.252375,3,2,12.20703125,-14.6484375,-36.62109375,10.25390625,0.0,0
1586284768.2562811,3,2,19.53125,-14.6484375,-36.62109375,5.37109375,0.0,0
1586284768.2601874,3,2,-42.96875,-33.69140625,-23.92578125,-39.55078125,0.0,0
1586284768.2640936,3,2,-85.44921875,-36.1328125,-30.76171875,-56.640625,0.0,0
1586284768.268,3,2,-55.17578125,-35.64453125,-34.1796875,-27.83203125,0.0,0
1586284768.2719061,3,2,12.20703125,-34.1796875,-24.4140625,8.30078125,0.0,0
1586284768.2758124,3,2,20.99609375,-23.92578125,-20.5078125,6.34765625,0.0,0
1586284768.2797186,3,2,-42.48046875,-22.4609375,-20.5078125,-25.390625,0.0,0
1586284768.283625,3,2,-72.265625,-22.4609375,-18.06640625,-41.50390625,0.0,0
1586284768.2875311,3,2,-45.8984375,-26.85546875,-8.30078125,-16.6015625,0.0,0
1586284768.2914374,3,2,15.625,-26.3671875,-6.34765625,22.94921875,0.0,0
1586284768.2953436,3,2,46.38671875,-18.5546875,-24.90234375,29.78515625,0.0,0
1586284768.29925,3,2,-6.8359375,-24.4140625,-25.390625,-2.9296875,0.0,0
1586284768.3031561,3,2,-65.91796875,-25.390625,-16.6015625,-39.55078125,0.0,0
1586284768.3070624,3,2,-58.59375,-17.578125,-16.11328125,-37.109375,0.0,0
1586284768.3109686,3,2,12.20703125,-17.578125,-31.73828125,-2.44140625,0.0,0
1586284768.314875,3,2,45.8984375,-19.53125,-35.15625,10.7421875,0.0,0
1586284768.3187811,3,2,-2.9296875,-22.4609375,-30.76171875,-23.4375,0.0,0
1586284768.3226874,3,2,-69.3359375,-18.06640625,-33.203125,-67.3828125,0.0,0
1586284768.3265936,3,2,-76.66015625,-28.80859375,-33.203125,-70.80078125,0.0,0
1586284768.3305,3,2,-8.30078125,-31.25,-30.76171875,-22.4609375,0.0,0
1586284768.3344061,3,2,40.52734375,-21.484375,-21.97265625,11.23046875,0.0,0
1586284768.3383124,3,2,7.8125,-20.5078125,-20.99609375,-3.41796875,0.0,0
1586284768.3422186,3,2,-63.96484375,-19.04296875,-24.90234375,-40.0390625,0.0,0
1586284768.346125,3,2,-68.359375,-20.99609375,-20.5078125,-41.50390625,0.0,0
1586284768.3500311,3,2,-27.34375,-28.3203125,-11.23046875,-3.90625,0.0,0
1586284768.3539374,3,2,19.53125,-27.34375,-24.90234375,16.6015625,0.0,0
1586284768.3578436,3,2,25.87890625,-22.4609375,-37.109375,2.44140625,0.0,0
1586284768.36175,3,2,-42.96875,-20.99609375,-40.52734375,-31.73828125,0.0,0
1586284768.3656561,3,2,-72.75390625,-32.71484375,-37.59765625,-47.36328125,0.0,0
1586284768.3695624,3,2,-22.4609375,-38.57421875,-29.78515625,-22.94921875,0.0,0
1586284768.3734686,3,2,33.203125,-20.99609375,-28.3203125,4.8828125,0.0,0
1586284768.377375,3,2,18.06640625,-20.5078125,-30.2734375,-2.44140625,0.0,0
1586284768.3812811,3,2,-48.828125,-28.80859375,-26.85546875,-42.48046875,0.0,0
1586284768.3851874,3,2,-75.1953125,-21.484375,-24.4140625,-66.89453125,0.0,0
1586284768.3890936,3,2,-22.4609375,-20.99609375,-29.78515625,-39.55078125,0.0,0
1586284768.393,3,2,41.015625,-16.11328125,-28.80859375,-1.953125,0.0,0
1586284768.3969061,3,2,36.62109375,-13.18359375,-27.34375,-7.32421875,0.0,0
1586284768.4008124,3,2,-32.71484375,-26.85546875,-32.71484375,-36.62109375,0.0,0
1586284768.4047186,3,2,-73.2421875,-30.76171875,-35.15625,-46.38671875,0.0,0
1586284768.408625,3,2,-25.390625,-28.3203125,-37.59765625,-27.34375,0.0,0
1586284768.4125311,3,2,41.015625,-29.296875,-40.52734375,10.25390625,0.0,0
1586284768.4164374,3,2,37.109375,-37.109375,-42.96875,9.765625,0.0,0
1586284768.4203436,3,2,-30.76171875,-32.71484375,-32.71484375,-24.4140625,0.0,0
1586284768.42425,3,2,-79.1015625,-20.99609375,-32.2265625,-52.734375,0.0,0
1586284768.4281561,3,2,-45.41015625,-12.20703125,-41.015625,-43.9453125,0.0,0
1586284768.4320624,3,2,16.11328125,-7.8125,-31.73828125,-3.41796875,0.0,0
1586284768.4359686,3,2,25.87890625,-12.6953125,-32.71484375,6.34765625,0.0,0
1586284768.439875,3,2,-32.71484375,-18.5546875,-28.3203125,-20.5078125,0.0,0
1586284768.4437811,3,2,-89.84375,-32.2265625,-21.484375,-46.38671875,0.0,0
1586284768.4476874,3,2,-66.40625,-35.64453125,-20.5078125,-35.64453125,0.0,0
1586284768.4515936,3,2,4.8828125,-33.69140625,-24.4140625,-2.44140625,0.0,0
1586284768.4555,3,2,28.80859375,-28.3203125,-24.90234375,12.20703125,0.0,0
1586284768.4594061,3,2,-20.5078125,-30.2734375,-37.109375,-20.5078125,0.0,0
1586284768.4633124,3,2,-75.68359375,-41.015625,-48.828125,-62.01171875,0.0,0
1586284768.4672186,3,2,-62.98828125,-32.2265625,-47.36328125,-50.78125,0.0,0
1586284768.471125,3,2,10.7421875,-26.85546875,-31.73828125,-7.32421875,0.0,0
1586284768.4750311,3,2,37.109375,-26.3671875,-22.4609375,5.859375,0.0,0
1586284768.4789374,3,2,-18.06640625,-20.01953125,-23.92578125,-15.625,0.0,0
1586284768.4828436,3,2,-65.91796875,-19.04296875,-20.5078125,-50.78125,0.0,0
1586284768.48675,3,2,-59.08203125,-26.3671875,-21.97265625,-55.6640625,0.0,0
1586284768.4906561,3,2,2.44140625,-22.94921875,-22.94921875,-12.6953125,0.0,0
1586284768.4945624,3,2,41.50390625,-21.484375,-31.25,12.20703125,0.0,0
1586284768.4984686,3,2,5.37109375,-22.94921875,-31.25,-2.9296875,0.0,0
1586284768.502375,3,2,-58.10546875,-25.87890625,-24.90234375,-27.83203125,0.0,0
1586284768.5062811,3,2,-63.96484375,-23.4375,-17.578125,-19.04296875,0.0,0
1586284768.5101874,3,2,-1.953125,-17.578125,-8.7890625,20.5078125,0.0,0
1586284768.5140936,3,2,37.59765625,-19.04296875,-9.27734375,43.45703125,0.0,0
1586284768.518,3,2,-1.953125,-22.4609375,-18.5546875,13.671875,0.0,0
1586284768.5219061,3,2,-70.3125,-30.2734375,-23.4375,-35.64453125,0.0,0
1586284768.5258124,3,2,-82.03125,-32.2265625,-27.34375,-39.0625,0.0,0
1586284768.5297186,3,2,-23.92578125,-31.73828125,-34.66796875,0.48828125,0.0,0
1586284768.533625,3,2,31.25,-30.2734375,-34.66796875,27.83203125,0.0,0
1586284768.5375311,3,2,18.5546875,-29.296875,-31.73828125,2.44140625,0.0,0
1586284768.5414374,3,2,-48.828125,-37.109375,-35.64453125,-41.015625,0.0,0
1586284768.5453436,3,2,-80.078125,-38.57421875,-47.8515625,-52.24609375,0.0,0
1586284768.54925,3,2,-26.3671875,-28.3203125,-45.8984375,-20.5078125,0.0,0
1586284768.5531561,3,2,41.9921875,-18.5546875,-31.73828125,13.18359375,0.0,0
1586284768.5570624,3,2,33.203125,-11.71875,-30.2734375,-0.9765625,0.0,0
1586284768.5609686,3,2,-32.71484375,-17.08984375,-28.80859375,-33.203125,0.0,0
1586284768.564875,3,2,-75.68359375,-29.296875,-26.85546875,-48.828125,0.0,0
1586284768.5687811,3,2,-41.9921875,-33.69140625,-23.4375,-33.203125,0.0,0
1586284768.5726874,3,2,13.671875,-30.2734375,-27.83203125,-1.953125,0.0,0
1586284768.5765936,3,2,5.859375,-18.06640625,-38.0859375,-2.9296875,0.0,0
1586284768.5805,3,2,-57.12890625,-15.13671875,-29.78515625,-42.96875,0.0,0
1586284768.5844061,3,2,-99.609375,-20.5078125,-36.62109375,-51.7578125,0.0,0
1586284768.5883124,3,2,-64.94140625,-35.15625,-61.5234375,-29.296875,0.0,0
1586284768.5922186,3,2,9.27734375,-38.57421875,-53.22265625,-1.953125,0.0,0
1586284768.596125,3,2,20.5078125,-24.4140625,-22.94921875,10.7421875,0.0,0
1586284768.6000311,3,2,-26.3671875,-21.97265625,-18.06640625,-15.625,0.0,0
1586284768.6039374,3,2,-58.59375,-20.99609375,-18.06640625,-43.45703125,0.0,0
1586284768.6078436,3,2,-40.0390625,-21.484375,-23.4375,-31.25,0.0,0
1586284768.61175,3,2,28.3203125,-23.92578125,-29.296875,11.23046875,0.0,0
1586284768.6156561,3,2,40.0390625,-26.3671875,-29.78515625,21.97265625,0.0,0
1586284768.6195624,3,2,-30.2734375,-36.1328125,-36.62109375,-16.11328125,0.0,0
1586284768.6234686,3,2,-93.75,-35.15625,-36.62109375,-58.59375,0.0,0
1586284768.627375,4,2,-68.84765625,-23.92578125,-27.83203125,-50.29296875,0.0,0
1586284768.6312811,4,2,2.9296875,-25.390625,-26.3671875,-7.8125,0.0,0
1586284768.6351874,4,2,26.3671875,-35.15625,-38.0859375,-1.46484375,0.0,0
1586284768.6390936,4,2,-19.04296875,-43.45703125,-37.109375,-28.3203125,0.0,0
1586284768.643,4,2,-75.68359375,-38.0859375,-31.25,-59.08203125,0.0,0
1586284768.6469061,4,2,-80.078125,-38.0859375,-36.1328125,-58.10546875,0.0,0
1586284768.6508124,4,2,-19.53125,-37.59765625,-39.0625,-24.90234375,0.0,0
1586284768.6547186,4,2,25.390625,-31.73828125,-32.2265625,2.9296875,0.0,0
1586284768.658625,4,2,-20.01953125,-38.0859375,-23.4375,-22.4609375,0.0,0
1586284768.6625311,4,2,-93.26171875,-41.9921875,-35.64453125,-60.05859375,0.0,0
1586284768.6664374,4,2,-91.796875,-51.7578125,-36.62109375,-53.22265625,0.0,0
1586284768.6703436,4,2,-20.5078125,-49.8046875,-27.34375,-16.6015625,0.0,0
1586284768.67425,4,2,29.296875,-19.53125,-20.01953125,11.23046875,0.0,0
1586284768.6781561,4,2,-4.8828125,-18.5546875,-20.01953125,-6.34765625,0.0,0
1586284768.6820624,4,2,-77.1484375,-33.69140625,-32.71484375,-42.48046875,0.0,0
