timestamps,words,terms,TP9,AF7,AF8,TP10,Right AUX,Marker
1586284894.908625,1,1,33.69140625,-15.625,-23.92578125,19.53125,0.0,0
1586284894.9125311,1,1,-16.11328125,-10.7421875,-40.52734375,-15.13671875,0.0,0
1586284894.9164374,1,1,-47.8515625,-4.8828125,-42.96875,-36.1328125,0.0,0
1586284894.9203436,1,1,-18.06640625,-5.859375,-48.828125,-28.3203125,0.0,0
1586284894.92425,1,1,41.50390625,-17.08984375,-47.36328125,-2.9296875,0.0,0
1586284894.9281561,1,1,45.8984375,-20.5078125,-36.1328125,8.7890625,0.0,0
1586284894.9320624,1,1,-2.44140625,-14.16015625,-24.90234375,-18.06640625,0.0,0
1586284894.9359686,1,1,-46.38671875,-22.94921875,-33.69140625,-51.7578125,0.0,0
1586284894.939875,1,1,-29.78515625,-26.3671875,-38.57421875,-36.1328125,0.0,0
1586284894.9437811,1,1,32.2265625,-16.11328125,-33.69140625,-3.41796875,0.0,0
1586284894.9476874,1,1,56.15234375,-15.625,-26.3671875,7.8125,0.0,0
1586284894.9515936,1,1,10.7421875,-17.578125,-21.484375,-7.8125,0.0,0
1586284894.9555,1,1,-50.29296875,-17.08984375,-24.90234375,-50.29296875,0.0,0
1586284894.9594061,1,1,-46.875,-4.8828125,-19.04296875,-52.24609375,0.0,0
1586284894.9633124,1,1,14.16015625,-5.859375,-17.08984375,-8.7890625,0.0,0
1586284894.9672186,1,1,52.734375,-19.53125,-31.73828125,17.578125,0.0,0
1586284894.971125,1,1,17.578125,-13.671875,-33.69140625,1.46484375,0.0,0
1586284894.9750311,1,1,-34.1796875,-11.23046875,-29.296875,-29.78515625,0.0,0
1586284894.9789374,1,1,-30.76171875,-18.5546875,-29.296875,-28.80859375,0.0,0
1586284894.9828436,1,1,11.23046875,-15.13671875,-38.0859375,4.39453125,0.0,0
1586284894.98675,1,1,42.96875,-8.30078125,-43.45703125,21.484375,0.0,0
1586284894.9906561,1,1,28.80859375,-0.48828125,-40.52734375,-4.39453125,0.0,0
1586284894.9945624,1,1,-31.73828125,0.9765625,-45.41015625,-45.41015625,0.0,0
1586284894.9984686,1,1,-57.6171875,-3.41796875,-38.57421875,-50.29296875,0.0,0
1586284895.002375,1,1,-5.859375,-2.9296875,-31.73828125,-12.20703125,0.0,0
1586284895.0062811,1,1,38.0859375,-10.7421875,-38.57421875,13.18359375,0.0,0
1586284895.0101874,1,1,3.90625,-17.08984375,-48.33984375,-0.48828125,0.0,0
1586284895.0140936,1,1,-52.734375,-20.5078125,-53.7109375,-38.57421875,0.0,0
1586284895.018,1,1,-55.6640625,-28.80859375,-45.8984375,-51.7578125,0.0,0
1586284895.0219061,1,1,-20.5078125,-24.4140625,-37.59765625,-25.87890625,0.0,0
1586284895.0258124,1,1,35.15625,-16.6015625,-29.78515625,5.859375,0.0,0
1586284895.0297186,1,1,25.390625,-12.6953125,-35.15625,1.953125,0.0,0
1586284895.033625,1,1,-46.38671875,-10.25390625,-38.57421875,-41.9921875,0.0,0
1586284895.0375311,1,1,-61.03515625,-12.6953125,-35.64453125,-57.6171875,0.0,0
1586284895.0414374,1,1,-14.6484375,-19.53125,-47.8515625,-25.390625,0.0,0
1586284895.0453436,1,1,39.55078125,-11.23046875,-47.8515625,14.6484375,0.0,0
1586284895.04925,1,1,28.3203125,-10.25390625,-42.96875,16.11328125,0.0,0
1586284895.0531561,1,1,-24.90234375,-31.25,-41.015625,-23.92578125,0.0,0
1586284895.0570624,1,1,-68.359375,-32.71484375,-34.1796875,-43.9453125,0.0,0
1586284895.0609686,1,1,-50.78125,-20.5078125,-31.73828125,-23.92578125,0.0,0
1586284895.064875,1,1,0.0,-19.53125,-38.57421875,3.90625,0.0,0
1586284895.0687811,1,1,11.23046875,-21.97265625,-40.0390625,4.8828125,0.0,0
1586284895.0726874,1,1,-37.59765625,-19.04296875,-46.875,-21.97265625,0.0,0
1586284895.0765936,1,1,-85.9375,-20.5078125,-41.9921875,-53.7109375,0.0,0
1586284895.0805,1,1,-54.19921875,-23.4375,-34.1796875,-45.8984375,0.0,0
1586284895.0844061,1,1,22.94921875,-20.99609375,-36.62109375,-5.859375,0.0,0
1586284895.0883124,1,1,49.31640625,-29.78515625,-39.0625,19.53125,0.0,0
1586284895.0922186,1,1,0.0,-26.85546875,-40.52734375,-2.44140625,0.0,0
1586284895.096125,1,1,-58.10546875,-14.16015625,-39.55078125,-37.59765625,0.0,0
1586284895.1000311,1,1,-43.45703125,-5.859375,-36.62109375,-23.4375,0.0,0
1586284895.1039374,1,1,13.671875,-5.859375,-41.015625,12.20703125,0.0,0
1586284895.1078436,1,1,31.25,-19.04296875,-43.45703125,13.18359375,0.0,0
1586284895.11175,1,1,-3.90625,-22.94921875,-36.62109375,-19.04296875,0.0,0
1586284895.1156561,1,1,-50.29296875,-16.11328125,-24.90234375,-40.52734375,0.0,0
1586284895.1195624,1,1,-51.7578125,-18.06640625,-27.34375,-31.73828125,0.0,0
1586284895.1234686,1,1,-3.41796875,-22.94921875,-47.36328125,-9.765625,0.0,0
1586284895.127375,1,1,38.57421875,-17.578125,-41.9921875,9.765625,0.0,0
1586284895.1312811,1,1,6.8359375,-17.578125,-25.87890625,-4.8828125,0.0,0
1586284895.1351874,1,1,-61.5234375,-18.5546875,-16.6015625,-34.1796875,0.0,0
1586284895.1390936,1,1,-69.82421875,-6.34765625,-14.16015625,-42.48046875,0.0,0
1586284895.143,1,1,-18.5546875,-5.859375,-27.34375,-16.6015625,0.0,0
1586284895.1469061,1,1,18.5546875,-10.25390625,-22.94921875,8.30078125,0.0,0
1586284895.1508124,1,1,-6.34765625,-11.71875,-21.484375,-10.7421875,0.0,0
1586284895.1547186,1,1,-84.47265625,-25.390625,-32.71484375,-43.45703125,0.0,0
1586284895.158625,1,1,-95.703125,-48.33984375,-27.83203125,-33.69140625,0.0,0
1586284895.1625311,1,1,-17.08984375,-43.9453125,-24.90234375,2.9296875,0.0,0
1586284895.1664374,1,1,46.38671875,-14.16015625,-35.15625,26.3671875,0.0,0
1586284895.1703436,1,1,28.80859375,-8.7890625,-28.3203125,2.9296875,0.0,0
1586284895.17425,1,1,-30.2734375,-14.6484375,-27.83203125,-32.2265625,0.0,0
1586284895.1781561,1,1,-38.57421875,-17.08984375,-33.69140625,-27.83203125,0.0,0
1586284895.1820624,1,1,-10.25390625,-18.06640625,-24.4140625,-7.8125,0.0,0
1586284895.1859686,1,1,22.4609375,-22.94921875,-25.390625,6.8359375,0.0,0
1586284895.189875,1,1,14.16015625,-30.2734375,-20.01953125,-16.6015625,0.0,0
1586284895.1937811,1,1,-50.29296875,-14.16015625,-15.625,-65.91796875,0.0,0
1586284895.1976874,1,1,-84.47265625,-7.32421875,-26.85546875,-91.796875,0.0,0
1586284895.2015936,1,1,-68.359375,-17.08984375,-21.97265625,-71.2890625,0.0,0
1586284895.2055,1,1,-26.85546875,-16.11328125,-14.6484375,-31.25,0.0,0
1586284895.2094061,1,1,-29.78515625,-15.13671875,-19.04296875,-28.80859375,0.0,0
1586284895.2133124,1,1,-76.66015625,-15.13671875,-25.87890625,-68.84765625,0.0,0
1586284895.2172186,1,1,-95.703125,-18.5546875,-31.25,-94.7265625,0.0,0
1586284895.221125,1,1,-55.6640625,-31.73828125,-28.80859375,-54.6875,0.0,0
1586284895.2250311,1,1,-0.9765625,-34.66796875,-27.83203125,-8.30078125,0.0,0
1586284895.2289374,1,1,-6.34765625,-21.97265625,-36.62109375,-6.8359375,0.0,0
1586284895.2328436,1,1,-45.8984375,-18.06640625,-41.015625,-41.9921875,0.0,0
1586284895.23675,1,1,-78.61328125,-27.83203125,-33.69140625,-75.68359375,0.0,0
1586284895.2406561,1,1,-62.01171875,-29.78515625,-33.203125,-59.5703125,0.0,0
1586284895.2445624,1,1,5.859375,-23.4375,-36.1328125,-20.99609375,0.0,0
1586284895.2484686,1,1,18.06640625,-28.3203125,-32.71484375,-5.37109375,0.0,0
1586284895.252375,1,1,-51.26953125,-35.15625,-35.64453125,-21.97265625,0.0,0
1586284895.2562811,1,1,-93.26171875,-36.1328125,-38.0859375,-58.59375,0.0,0
1586284895.2601874,1,1,-64.453125,-30.76171875,-40.0390625,-53.7109375,0.0,0
1586284895.2640936,1,1,0.48828125,-15.625,-46.875,-18.06640625,0.0,0
1586284895.268,1,1,23.92578125,-13.18359375,-39.55078125,3.41796875,0.0,0
1586284895.2719061,1,1,-17.578125,-14.6484375,-35.15625,-27.34375,0.0,0
1586284895.2758124,1,1,-73.2421875,-9.765625,-41.50390625,-63.4765625,0.0,0
1586284895.2797186,1,1,-61.03515625,-17.578125,-37.109375,-53.7109375,0.0,0
1586284895.283625,1,1,0.48828125,-26.3671875,-36.62109375,-25.87890625,0.0,0
1586284895.2875311,1,1,11.71875,-27.83203125,-38.57421875,-7.32421875,0.0,0
1586284895.2914374,1,1,-27.83203125,-23.4375,-38.57421875,-22.4609375,0.0,0
1586284895.2953436,1,1,-77.63671875,-23.4375,-32.71484375,-53.7109375,0.0,0
1586284895.29925,1,1,-80.078125,-28.80859375,-26.85546875,-58.59375,0.0,0
1586284895.3031561,1,1,-31.25,-14.6484375,-17.08984375,-21.97265625,0.0,0
1586284895.3070624,1,1,-1.46484375,-7.8125,-21.97265625,1.953125,0.0,0
1586284895.3109686,1,1,-6.8359375,-14.6484375,-37.109375,-16.6015625,0.0,0
1586284895.314875,1,1,-46.875,-13.18359375,-33.69140625,-52.24609375,0.0,0
1586284895.3187811,1,1,-48.828125,-9.27734375,-31.73828125,-63.96484375,0.0,0
1586284895.3226874,1,1,5.859375,-15.13671875,-33.69140625,-21.484375,0.0,0
1586284895.3265936,1,1,50.78125,-10.7421875,-32.71484375,5.859375,0.0,0
1586284895.3305,1,1,27.34375,-9.765625,-31.25,-11.71875,0.0,0
1586284895.3344061,1,1,-39.0625,-18.5546875,-40.0390625,-41.015625,0.0,0
1586284895.3383124,1,1,-51.7578125,-12.6953125,-36.1328125,-50.29296875,0.0,0
1586284895.3422186,1,1,-4.8828125,-16.6015625,-28.80859375,-26.85546875,0.0,0
1586284895.346125,1,1,31.25,-20.99609375,-25.390625,-5.37109375,0.0,0
1586284895.3500311,1,1,1.46484375,-18.5546875,-29.78515625,-21.484375,0.0,0
1586284895.3539374,1,1,-53.7109375,-21.97265625,-37.109375,-57.12890625,0.0,0
1586284895.3578436,1,1,-74.21875,-26.85546875,-42.48046875,-57.12890625,0.0,0
1586284895.36175,1,1,-34.66796875,-24.90234375,-34.1796875,-25.390625,0.0,0
1586284895.3656561,1,1,26.3671875,-24.90234375,-17.08984375,7.32421875,0.0,0
1586284895.3695624,1,1,17.08984375,-28.80859375,-12.6953125,12.6953125,0.0,0
1586284895.3734686,1,1,-48.828125,-27.83203125,-12.20703125,-22.94921875,0.0,0
1586284895.377375,1,1,-79.58984375,-22.94921875,-19.04296875,-40.0390625,0.0,0
1586284895.3812811,1,1,-41.50390625,-16.11328125,-27.83203125,-15.13671875,0.0,0
1586284895.3851874,1,1,17.578125,-14.16015625,-15.625,12.20703125,0.0,0
1586284895.3890936,1,1,15.625,-9.765625,-14.6484375,10.7421875,0.0,0
1586284895.393,1,1,-33.69140625,-12.20703125,-20.01953125,-19.53125,0.0,0
1586284895.3969061,1,1,-59.08203125,-16.11328125,-20.5078125,-41.9921875,0.0,0
1586284895.4008124,1,1,-30.2734375,-17.08984375,-36.1328125,-27.83203125,0.0,0
1586284895.4047186,1,1,33.203125,-12.6953125,-38.57421875,3.90625,0.0,0
1586284895.408625,1,1,44.921875,-19.53125,-31.25,-0.9765625,0.0,0
1586284895.4125311,1,1,-12.20703125,-16.6015625,-28.80859375,-28.3203125,0.0,0
1586284895.4164374,1,1,-61.5234375,-2.44140625,-29.296875,-48.828125,0.0,0
1586284895.4203436,1,1,-36.62109375,-6.8359375,-24.4140625,-36.62109375,0.0,0
1586284895.42425,1,1,20.99609375,-13.18359375,-23.4375,-4.8828125,0.0,0
1586284895.4281561,1,1,39.55078125,-15.625,-27.83203125,7.8125,0.0,0
1586284895.4320624,1,1,-18.5546875,-15.13671875,-27.34375,-13.18359375,0.0,0
1586284895.4359686,1,1,-73.2421875,-18.5546875,-28.80859375,-39.55078125,0.0,0
1586284895.439875,1,1,-36.1328125,-22.94921875,-31.73828125,-41.50390625,0.0,0
1586284895.4437811,1,1,23.92578125,-15.625,-32.2265625,-1.46484375,0.0,0
1586284895.4476874,1,1,45.41015625,-14.16015625,-39.0625,26.3671875,0.0,0
1586284895.4515936,1,1,0.48828125,-22.94921875,-36.62109375,-4.8828125,0.0,0
1586284895.4555,1,1,-54.19921875,-18.5546875,-29.78515625,-38.57421875,0.0,0
1586284895.4594061,1,1,-52.734375,-12.20703125,-29.78515625,-30.2734375,0.0,0
1586284895.4633124,1,1,5.859375,-16.6015625,-34.66796875,-3.90625,0.0,0
1586284895.4672186,1,1,55.6640625,-17.578125,-39.55078125,18.06640625,0.0,0
1586284895.471125,1,1,10.25390625,-21.484375,-45.41015625,0.48828125,0.0,0
1586284895.4750311,1,1,-50.78125,-25.390625,-39.55078125,-38.57421875,0.0,0
1586284895.4789374,1,1,-30.76171875,-20.99609375,-39.0625,-37.109375,0.0,0
1586284895.4828436,1,1,-3.41796875,-20.5078125,-41.015625,-7.32421875,0.0,0
1586284895.48675,1,1,30.76171875,-21.484375,-32.71484375,6.8359375,0.0,0
1586284895.4906561,1,1,10.25390625,-17.08984375,-30.2734375,-16.6015625,0.0,0
1586284895.4945624,1,1,-53.22265625,-17.08984375,-36.62109375,-56.15234375,0.0,0
1586284895.4984686,1,1,-61.5234375,-18.06640625,-40.0390625,-55.6640625,0.0,0
1586284895.502375,1,1,-0.9765625,-11.23046875,-38.0859375,-13.671875,0.0,0
1586284895.5062811,1,1,52.734375,-20.01953125,-35.64453125,10.25390625,0.0,0
1586284895.5101874,1,1,31.25,-16.6015625,-34.66796875,-0.48828125,0.0,0
1586284895.5140936,1,1,-27.83203125,-5.37109375,-34.1796875,-27.34375,0.0,0
1586284895.518,1,1,-46.38671875,0.0,-34.66796875,-44.921875,0.0,0
1586284895.5219061,1,1,-8.30078125,-9.765625,-36.1328125,-24.4140625,0.0,0
1586284895.5258124,1,1,40.0390625,-20.01953125,-34.66796875,2.44140625,0.0,0
1586284895.5297186,1,1,40.52734375,-22.4609375,-30.76171875,-8.7890625,0.0,0
1586284895.533625,1,1,-9.765625,-26.85546875,-26.3671875,-41.015625,0.0,0
1586284895.5375311,1,1,-40.0390625,-19.04296875,-26.3671875,-52.24609375,0.0,0
1586284895.5414374,1,1,-5.859375,-10.7421875,-31.73828125,-28.80859375,0.0,0
1586284895.5453436,1,1,31.73828125,-11.23046875,-36.1328125,9.27734375,0.0,0
1586284895.54925,1,1,25.87890625,-17.08984375,-28.80859375,7.32421875,0.0,0
1586284895.5531561,1,1,-20.01953125,-22.4609375,-36.1328125,-18.06640625,0.0,0
1586284895.5570624,1,1,-42.96875,-18.06640625,-56.15234375,-45.8984375,0.0,0
1586284895.5609686,1,1,-12.6953125,-15.625,-41.015625,-45.8984375,0.0,0
1586284895.564875,1,1,34.66796875,-18.5546875,-25.390625,-1.953125,0.0,0
1586284895.5687811,1,1,40.0390625,-25.390625,-19.53125,1.46484375,0.0,0
1586284895.5726874,1,1,-13.18359375,-23.4375,-18.06640625,-35.15625,0.0,0
1586284895.5765936,1,1,-59.5703125,-28.80859375,-30.76171875,-44.921875,0.0,0
1586284895.5805,1,1,-23.4375,-30.2734375,-27.83203125,-30.76171875,0.0,0
1586284895.5844061,1,1,36.62109375,-18.5546875,-23.92578125,-4.8828125,0.0,0
1586284895.5883124,1,1,33.203125,-17.08984375,-36.62109375,-7.32421875,0.0,0
1586284895.5922186,1,1,-8.7890625,-23.4375,-42.48046875,-44.43359375,0.0,0
1586284895.596125,1,1,-69.3359375,-22.94921875,-32.2265625,-54.19921875,0.0,0
1586284895.6000311,1,1,-69.82421875,-18.5546875,-26.3671875,-38.0859375,0.0,0
1586284895.6039374,1,1,2.44140625,-25.390625,-25.390625,-23.92578125,0.0,0
1586284895.6078436,1,1,35.64453125,-19.53125,-16.6015625,8.30078125,0.0,0
1586284895.61175,1,1,-11.23046875,-6.8359375,-16.11328125,-11.23046875,0.0,0
1586284895.6156561,1,1,-60.546875,-14.16015625,-29.296875,-54.6875,0.0,0
1586284895.6195624,1,1,-44.43359375,-28.3203125,-33.203125,-36.1328125,0.0,0
1586284895.6234686,1,1,2.44140625,-27.34375,-35.15625,0.48828125,0.0,0
1586284895.627375,1,1,33.203125,-18.5546875,-37.59765625,7.32421875,0.0,0
1586284895.6312811,1,1,6.8359375,-17.08984375,-28.3203125,-13.671875,0.0,0
1586284895.6351874,1,1,-44.921875,-16.6015625,-28.3203125,-40.52734375,0.0,0
1586284895.6390936,1,1,-53.22265625,-18.06640625,-24.4140625,-49.8046875,0.0,0
1586284895.643,1,1,-2.44140625,-25.87890625,-24.4140625,-11.23046875,0.0,0
1586284895.6469061,1,1,44.921875,-28.80859375,-29.296875,18.06640625,0.0,0
1586284895.6508124,1,1,23.4375,-24.90234375,-25.87890625,4.39453125,0.0,0
1586284895.6547186,1,1,-47.36328125,-24.4140625,-27.83203125,-31.73828125,0.0,0
1586284895.658625,1,1,-65.4296875,-25.390625,-21.97265625,-45.41015625,0.0,0
1586284895.6625311,1,1,-14.16015625,-25.390625,-27.83203125,-8.30078125,0.0,0
1586284895.6664374,1,1,38.57421875,-21.97265625,-39.0625,14.16015625,0.0,0
1586284895.6703436,1,1,14.16015625,-26.85546875,-25.87890625,-10.7421875,0.0,0
1586284895.67425,1,1,-72.265625,-46.875,-22.4609375,-45.8984375,0.0,0
1586284895.6781561,1,1,-91.30859375,-46.38671875,-29.296875,-50.78125,0.0,0
1586284895.6820624,1,1,-34.66796875,-32.2265625,-31.73828125,-28.80859375,0.0,0
1586284895.6859686,1,1,9.27734375,-21.97265625,-41.015625,-0.48828125,0.0,0
1586284895.689875,1,1,2.9296875,-19.53125,-48.828125,-6.8359375,0.0,0
1586284895.6937811,1,1,-48.33984375,-22.4609375,-48.828125,-41.015625,0.0,0
1586284895.6976874,1,1,-83.984375,-21.97265625,-41.50390625,-48.828125,0.0,0
1586284895.7015936,1,1,-39.55078125,-24.90234375,-26.3671875,-33.203125,0.0,0
1586284895.7055,1,1,24.90234375,-22.94921875,-22.4609375,-10.25390625,0.0,0
1586284895.7094061,1,1,27.34375,-21.484375,-24.90234375,-7.8125,0.0,0
1586284895.7133124,1,1,-28.80859375,-20.99609375,-23.92578125,-40.0390625,0.0,0
1586284895.7172186,1,1,-69.3359375,-24.4140625,-31.25,-55.17578125,0.0,0
1586284895.721125,1,1,-25.390625,-30.76171875,-39.0625,-25.87890625,0.0,0
1586284895.7250311,1,1,40.0390625,-28.80859375,-34.66796875,-6.34765625,0.0,0
1586284895.7289374,1,1,40.0390625,-34.1796875,-17.578125,-0.48828125,0.0,0
1586284895.7328436,1,1,-8.7890625,-29.78515625,-16.11328125,-4.8828125,0.0,0
1586284895.73675,1,1,-63.96484375,-20.01953125,-41.9921875,-28.80859375,0.0,0
1586284895.7406561,1,1,-28.3203125,-23.92578125,-35.15625,-21.484375,0.0,0
1586284895.7445624,1,1,50.29296875,-32.71484375,-18.5546875,7.32421875,0.0,0
1586284895.7484686,1,1,47.36328125,-23.92578125,-20.5078125,15.625,0.0,0
1586284895.752375,1,1,-12.20703125,-18.5546875,-20.5078125,-11.71875,0.0,0
1586284895.7562811,1,1,-63.4765625,-21.484375,-19.04296875,-45.8984375,0.0,0
1586284895.7601874,1,1,-48.828125,-20.99609375,-34.1796875,-34.1796875,0.0,0
1586284895.7640936,1,1,12.20703125,-21.484375,-52.734375,1.953125,0.0,0
1586284895.768,1,1,31.25,-17.578125,-36.1328125,7.8125,0.0,0
1586284895.7719061,1,1,-10.7421875,-20.5078125,-17.578125,-14.6484375,0.0,0
1586284895.7758124,1,1,-68.84765625,-25.390625,-20.5078125,-37.59765625,0.0,0
1586284895.7797186,1,1,-65.4296875,-26.3671875,-28.80859375,-34.1796875,0.0,0
1586284895.783625,1,1,14.16015625,-28.3203125,-40.0390625,4.39453125,0.0,0
1586284895.7875311,1,1,60.05859375,-27.34375,-42.96875,16.11328125,0.0,0
1586284895.7914374,1,1,6.8359375,-23.4375,-26.3671875,-9.765625,0.0,0
1586284895.7953436,1,1,-51.7578125,-19.53125,-16.6015625,-23.4375,0.0,0
1586284895.79925,1,1,-53.7109375,-18.5546875,-22.94921875,-42.48046875,0.0,0
1586284895.8031561,1,1,-13.671875,-19.53125,-30.76171875,-18.06640625,0.0,0
1586284895.8070624,1,1,29.296875,-23.4375,-33.203125,8.7890625,0.0,0
1586284895.8109686,1,1,-1.953125,-28.80859375,-48.33984375,-26.85546875,0.0,0
1586284895.814875,1,1,-55.17578125,-27.34375,-47.8515625,-48.828125,0.0,0
1586284895.8187811,1,1,-44.921875,-32.2265625,-21.97265625,-32.2265625,0.0,0
1586284895.8226874,1,1,8.30078125,-27.34375,-18.5546875,3.41796875,0.0,0
1586284895.8265936,1,1,47.36328125,-18.06640625,-28.3203125,20.99609375,0.0,0
1586284895.8305,1,1,27.83203125,-16.11328125,-20.99609375,0.48828125,0.0,0
1586284895.8344061,1,1,-32.71484375,-18.5546875,-20.99609375,-25.390625,0.0,0
1586284895.8383124,1,1,-49.8046875,-20.01953125,-42.96875,-20.01953125,0.0,0
1586284895.8422186,1,1,8.30078125,-23.4375,-29.296875,8.7890625,0.0,0
1586284895.846125,1,1,49.8046875,-18.06640625,-11.71875,27.83203125,0.0,0
1586284895.8500311,1,1,30.76171875,-11.23046875,-14.6484375,17.578125,0.0,0
1586284895.8539374,1,1,-25.390625,-21.484375,-16.6015625,-26.85546875,0.0,0
1586284895.8578436,1,1,-51.26953125,-18.06640625,-24.4140625,-48.828125,0.0,0
1586284895.86175,1,1,-1.46484375,-14.6484375,-36.1328125,-15.13671875,0.0,0
1586284895.8656561,1,1,58.59375,-19.53125,-27.83203125,13.671875,0.0,0
1586284895.8695624,1,1,26.85546875,-15.625,-19.53125,-8.7890625,0.0,0
1586284895.8734686,1,1,-49.8046875,-18.06640625,-23.4375,-39.55078125,0.0,0
1586284895.877375,1,1,-62.01171875,-32.2265625,-27.83203125,-44.43359375,0.0,0
1586284895.8812811,1,1,-24.90234375,-30.2734375,-34.1796875,-33.203125,0.0,0
1586284895.8851874,1,1,29.296875,-23.4375,-29.78515625,-13.18359375,0.0,0
1586284895.8890936,1,1,32.71484375,-20.5078125,-20.5078125,-15.625,0.0,0
1586284895.893,1,1,-15.625,-21.97265625,-20.01953125,-33.69140625,0.0,0
1586284895.8969061,1,1,-43.45703125,-25.390625,-28.80859375,-47.36328125,0.0,0
1586284895.9008124,1,1,-7.8125,-16.11328125,-23.92578125,-34.1796875,0.0,0
1586284895.9047186,1,1,43.45703125,-14.16015625,-23.92578125,-2.44140625,0.0,0
1586284895.908625,1,1,45.41015625,-28.3203125,-26.3671875,5.859375,0.0,0
1586284895.9125311,1,1,-7.32421875,-29.78515625,-23.92578125,-20.99609375,0.0,0
1586284895.9164374,1,1,-48.828125,-15.13671875,-21.97265625,-48.33984375,0.0,0
1586284895.9203436,1,1,-20.99609375,-13.671875,-18.5546875,-34.1796875,0.0,0
1586284895.92425,1,1,34.66796875,-24.90234375,-25.87890625,1.953125,0.0,0
1586284895.9281561,1,1,51.26953125,-20.5078125,-43.9453125,19.53125,0.0,0
1586284895.9320624,1,1,-3.90625,-17.08984375,-43.45703125,-6.34765625,0.0,0
1586284895.9359686,1,1,-50.78125,-23.4375,-41.50390625,-36.1328125,0.0,0
1586284895.939875,1,1,-25.390625,-22.94921875,-52.734375,-31.25,0.0,0
1586284895.9437811,1,1,32.71484375,-21.484375,-41.50390625,14.16015625,0.0,0
1586284895.9476874,1,1,38.57421875,-26.85546875,-35.64453125,37.109375,0.0,0
1586284895.9515936,1,1,8.30078125,-21.97265625,-30.2734375,2.9296875,0.0,0
1586284895.9555,1,1,-30.2734375,-14.6484375,-38.0859375,-35.64453125,0.0,0
1586284895.9594061,1,1,-33.69140625,-22.94921875,-47.8515625,-40.0390625,0.0,0
1586284895.9633124,1,1,8.7890625,-28.80859375,-36.62109375,-2.44140625,0.0,0
1586284895.9672186,1,1,31.25,-23.4375,-24.90234375,21.484375,0.0,0
1586284895.971125,1,1,12.20703125,-23.92578125,-20.5078125,-2.9296875,0.0,0
1586284895.9750311,1,1,-39.55078125,-23.4375,-32.71484375,-37.59765625,0.0,0
1586284895.9789374,1,1,-67.3828125,-24.4140625,-47.36328125,-49.8046875,0.0,0
1586284895.9828436,1,1,-19.53125,-31.25,-40.52734375,-11.23046875,0.0,0
1586284895.98675,1,1,21.97265625,-33.69140625,-29.78515625,6.8359375,0.0,0
1586284895.9906561,1,1,2.9296875,-19.53125,-32.71484375,-13.18359375,0.0,0
1586284895.9945624,1,1,-37.59765625,-11.71875,-30.2734375,-42.96875,0.0,0
1586284895.9984686,1,1,-62.98828125,-11.71875,-30.2734375,-55.6640625,0.0,0
1586284896.002375,1,1,-24.90234375,-25.390625,-39.55078125,-20.01953125,0.0,0
1586284896.0062811,1,1,47.36328125,-22.4609375,-39.0625,3.90625,0.0,0
1586284896.0101874,1,1,35.64453125,-9.765625,-41.50390625,-6.8359375,0.0,0
1586284896.0140936,1,1,-39.0625,-16.6015625,-47.8515625,-36.62109375,0.0,0
1586284896.018,1,1,-59.08203125,-27.34375,-41.015625,-36.1328125,0.0,0
1586284896.0219061,1,1,-3.90625,-22.4609375,-27.34375,-6.34765625,0.0,0
1586284896.0258124,1,1,49.31640625,-23.4375,-20.99609375,11.71875,0.0,0
1586284896.0297186,1,1,28.80859375,-24.4140625,-24.4140625,9.765625,0.0,0
1586284896.033625,1,1,-42.96875,-19.53125,-29.78515625,-26.85546875,0.0,0
1586284896.0375311,1,1,-69.82421875,-26.85546875,-32.2265625,-55.17578125,0.0,0
1586284896.0414374,1,1,-24.4140625,-27.83203125,-39.0625,-24.90234375,0.0,0
1586284896.0453436,1,1,31.73828125,-21.97265625,-41.50390625,13.671875,0.0,0
1586284896.04925,1,1,23.92578125,-21.97265625,-39.55078125,1.953125,0.0,0
1586284896.0531561,1,1,-39.0625,-28.80859375,-34.66796875,-33.69140625,0.0,0
1586284896.0570624,1,1,-70.80078125,-32.2265625,-40.52734375,-54.6875,0.0,0
1586284896.0609686,1,1,-40.52734375,-32.2265625,-41.50390625,-24.90234375,0.0,0
1586284896.064875,1,1,16.11328125,-30.76171875,-36.62109375,17.578125,0.0,0
1586284896.0687811,1,1,28.80859375,-20.5078125,-25.390625,9.765625,0.0,0
1586284896.0726874,1,1,-30.2734375,-27.34375,-22.4609375,-28.3203125,0.0,0
1586284896.0765936,1,1,-78.61328125,-32.2265625,-35.15625,-47.36328125,0.0,0
1586284896.0805,1,1,-65.4296875,-26.85546875,-37.109375,-22.94921875,0.0,0
1586284896.0844061,1,1,15.13671875,-24.90234375,-33.69140625,8.7890625,0.0,0
1586284896.0883124,1,1,69.3359375,-21.484375,-25.87890625,10.7421875,0.0,0
1586284896.0922186,1,1,9.27734375,-22.94921875,-27.83203125,-16.6015625,0.0,0
1586284896.096125,1,1,-65.91796875,-27.34375,-39.0625,-43.9453125,0.0,0
1586284896.1000311,1,1,-34.1796875,-22.4609375,-35.15625,-35.64453125,0.0,0
1586284896.1039374,1,1,35.64453125,-14.16015625,-22.94921875,-2.9296875,0.0,0
1586284896.1078436,1,1,43.9453125,-25.390625,-25.390625,23.92578125,0.0,0
1586284896.11175,1,1,-1.953125,-35.64453125,-27.34375,-8.7890625,0.0,0
1586284896.1156561,1,1,-51.7578125,-24.90234375,-20.5078125,-42.96875,0.0,0
1586284896.1195624,1,1,-45.8984375,-19.53125,-24.90234375,-20.99609375,0.0,0
1586284896.1234686,1,1,20.99609375,-8.7890625,-30.2734375,13.671875,0.0,0
1586284896.127375,1,1,45.41015625,-11.23046875,-31.73828125,15.625,0.0,0
1586284896.1312811,1,1,-5.37109375,-19.53125,-29.296875,-19.53125,0.0,0
1586284896.1351874,1,1,-55.17578125,-17.08984375,-30.2734375,-40.52734375,0.0,0
1586284896.1390936,1,1,-42.96875,-17.08984375,-36.62109375,-21.97265625,0.0,0
1586284896.143,1,1,5.859375,-19.53125,-29.296875,1.46484375,0.0,0
1586284896.1469061,1,1,41.9921875,-22.94921875,-19.04296875,16.6015625,0.0,0
1586284896.1508124,1,1,9.27734375,-29.296875,-16.11328125,7.32421875,0.0,0
1586284896.1547186,1,1,-52.734375,-26.3671875,-18.5546875,-23.92578125,0.0,0
1586284896.158625,1,1,-65.91796875,-19.53125,-32.2265625,-36.62109375,0.0,0
1586284896.1625311,1,1,-11.71875,-20.99609375,-35.64453125,-11.71875,0.0,0
1586284896.1664374,1,1,37.59765625,-24.4140625,-29.78515625,17.08984375,0.0,0
1586284896.1703436,1,1,11.71875,-25.390625,-20.5078125,5.859375,0.0,0
1586284896.17425,1,1,-66.40625,-28.80859375,-17.08984375,-28.80859375,0.0,0
1586284896.1781561,1,1,-79.58984375,-28.80859375,-17.578125,-38.0859375,0.0,0
1586284896.1820624,1,1,0.48828125,-23.92578125,-20.99609375,0.0,0.0,0
1586284896.1859686,1,1,53.7109375,-20.01953125,-32.2265625,25.87890625,0.0,0
1586284896.189875,1,1,36.62109375,-21.484375,-38.57421875,3.90625,0.0,0
1586284896.1937811,1,1,-21.97265625,-23.4375,-32.71484375,-23.92578125,0.0,0
1586284896.1976874,1,1,-50.78125,-25.390625,-32.71484375,-33.203125,0.0,0
1586284896.2015936,1,1,-4.39453125,-29.78515625,-41.50390625,-12.20703125,0.0,0
1586284896.2055,1,1,40.0390625,-22.4609375,-42.96875,7.32421875,0.0,0
1586284896.2094061,1,1,22.4609375,-12.20703125,-36.62109375,-7.32421875,0.0,0
1586284896.2133124,1,1,-31.73828125,-18.5546875,-32.2265625,-34.1796875,0.0,0
1586284896.2172186,1,1,-61.03515625,-28.3203125,-32.71484375,-53.22265625,0.0,0
1586284896.221125,1,1,-34.66796875,-30.2734375,-39.0625,-31.73828125,0.0,0
1586284896.2250311,1,1,3.90625,-27.83203125,-36.1328125,5.859375,0.0,0
1586284896.2289374,1,1,9.27734375,-21.97265625,-32.2265625,9.27734375,0.0,0
1586284896.2328436,1,1,-40.52734375,-20.5078125,-32.2265625,-21.484375,0.0,0
1586284896.23675,1,1,-98.6328125,-28.80859375,-38.0859375,-57.12890625,0.0,0
1586284896.2406561,1,1,-54.6875,-35.64453125,-35.64453125,-35.15625,0.0,0
1586284896.2445624,1,1,26.3671875,-27.34375,-33.203125,7.8125,0.0,0
1586284896.2484686,1,1,28.3203125,-20.5078125,-43.9453125,1.46484375,0.0,0
1586284896.252375,1,1,-12.6953125,-17.578125,-45.8984375,-26.85546875,0.0,0
1586284896.2562811,1,1,-57.6171875,-27.83203125,-28.80859375,-44.921875,0.0,0
1586284896.2601874,1,1,-44.921875,-37.109375,-28.3203125,-32.2265625,0.0,0
1586284896.2640936,1,1,25.390625,-25.87890625,-43.9453125,1.46484375,0.0,0
1586284896.268,1,1,59.08203125,-16.11328125,-41.9921875,16.6015625,0.0,0
1586284896.2719061,1,1,14.16015625,-17.08984375,-21.484375,-8.30078125,0.0,0
1586284896.2758124,1,1,-51.7578125,-11.71875,-12.20703125,-40.0390625,0.0,0
1586284896.2797186,1,1,-59.08203125,-18.06640625,-11.23046875,-32.71484375,0.0,0
1586284896.283625,1,1,3.90625,-26.85546875,-22.94921875,0.9765625,0.0,0
1586284896.2875311,1,1,39.55078125,-32.71484375,-37.59765625,3.41796875,0.0,0
1586284896.2914374,1,1,-11.71875,-32.71484375,-36.1328125,-24.4140625,0.0,0
1586284896.2953436,1,1,-66.40625,-29.296875,-32.2265625,-46.38671875,0.0,0
1586284896.29925,1,1,-74.70703125,-29.78515625,-30.76171875,-40.0390625,0.0,0
1586284896.3031561,1,1,-31.25,-39.55078125,-25.390625,-13.18359375,0.0,0
1586284896.3070624,1,1,28.3203125,-40.52734375,-34.66796875,6.34765625,0.0,0
1586284896.3109686,1,1,17.578125,-28.3203125,-39.0625,-15.625,0.0,0
1586284896.314875,1,1,-63.4765625,-21.97265625,-31.73828125,-44.921875,0.0,0
1586284896.3187811,1,1,-81.0546875,-25.87890625,-42.48046875,-32.71484375,0.0,0
1586284896.3226874,1,1,-21.97265625,-28.80859375,-42.48046875,3.41796875,0.0,0
1586284896.3265936,1,1,20.01953125,-23.4375,-20.5078125,12.6953125,0.0,0
1586284896.3305,1,1,-5.37109375,-18.06640625,-16.11328125,-10.7421875,0.0,0
1586284896.3344061,1,1,-63.4765625,-24.4140625,-18.06640625,-26.85546875,0.0,0
1586284896.3383124,1,1,-69.82421875,-31.25,-19.53125,-39.55078125,0.0,0
1586284896.3422186,1,1,-23.4375,-31.25,-33.69140625,-27.83203125,0.0,0
1586284896.346125,1,1,31.25,-29.78515625,-40.0390625,-3.90625,0.0,0
1586284896.3500311,1,1,29.296875,-19.53125,-33.203125,-5.37109375,0.0,0
1586284896.3539374,1,1,-23.92578125,-15.625,-28.80859375,-39.0625,0.0,0
1586284896.3578436,1,1,-67.87109375,-17.08984375,-34.66796875,-57.12890625,0.0,0
1586284896.36175,1,1,-36.1328125,-12.6953125,-31.73828125,-20.99609375,0.0,0
1586284896.3656561,1,1,42.96875,-9.27734375,-21.484375,13.18359375,0.0,0
1586284896.3695624,1,1,35.64453125,-12.6953125,-24.4140625,4.8828125,0.0,0
1586284896.3734686,1,1,-39.55078125,-23.92578125,-22.94921875,-32.71484375,0.0,0
1586284896.377375,1,1,-61.03515625,-28.80859375,-21.97265625,-49.8046875,0.0,0
1586284896.3812811,1,1,-27.83203125,-19.04296875,-29.78515625,-29.296875,0.0,0
1586284896.3851874,1,1,30.76171875,-26.3671875,-39.55078125,-5.859375,0.0,0
1586284896.3890936,1,1,19.04296875,-30.2734375,-34.66796875,2.44140625,0.0,0
1586284896.393,1,1,-41.015625,-20.01953125,-17.578125,-13.671875,0.0,0
1586284896.3969061,1,1,-68.359375,-18.5546875,-21.484375,-46.875,0.0,0
1586284896.4008124,1,1,-25.87890625,-20.01953125,-34.66796875,-39.0625,0.0,0
1586284896.4047186,1,1,27.34375,-23.92578125,-32.71484375,12.20703125,0.0,0
1586284896.408625,1,1,9.27734375,-24.90234375,-28.80859375,9.765625,0.0,0
1586284896.4125311,1,1,-56.640625,-20.99609375,-18.5546875,-32.71484375,0.0,0
1586284896.4164374,1,1,-61.03515625,-20.01953125,-12.20703125,-39.0625,0.0,0
1586284896.4203436,1,1,-25.87890625,-23.92578125,-22.94921875,-14.16015625,0.0,0
1586284896.42425,1,1,11.23046875,-23.92578125,-28.3203125,9.765625,0.0,0
1586284896.4281561,1,1,37.59765625,-28.3203125,-29.78515625,26.85546875,0.0,0
1586284896.4320624,1,1,-12.6953125,-22.94921875,-40.0390625,-3.41796875,0.0,0
1586284896.4359686,1,1,-72.265625,-15.625,-33.69140625,-42.48046875,0.0,0
1586284896.439875,1,1,-51.26953125,-22.94921875,-29.78515625,-16.6015625,0.0,0
1586284896.4437811,1,1,22.94921875,-20.5078125,-28.3203125,26.3671875,0.0,0
1586284896.4476874,1,1,52.734375,-22.4609375,-23.92578125,24.90234375,0.0,0
1586284896.4515936,1,1,5.37109375,-33.203125,-25.87890625,-13.671875,0.0,0
1586284896.4555,1,1,-61.03515625,-30.2734375,-31.25,-46.875,0.0,0
1586284896.4594061,1,1,-70.3125,-22.94921875,-34.1796875,-35.15625,0.0,0
1586284896.4633124,1,1,3.90625,-16.11328125,-33.203125,6.34765625,0.0,0
1586284896.4672186,1,1,38.0859375,-14.6484375,-23.92578125,16.11328125,0.0,0
1586284896.471125,1,1,-8.7890625,-24.4140625,-15.13671875,-5.37109375,0.0,0
1586284896.4750311,1,1,-42.96875,-30.2734375,-22.4609375,-27.83203125,0.0,0
1586284896.4789374,1,1,-42.96875,-23.4375,-30.76171875,-35.15625,0.0,0
1586284896.4828436,1,1,9.765625,-21.484375,-17.08984375,-2.9296875,0.0,0
1586284896.48675,1,1,55.6640625,-23.4375,-5.37109375,17.578125,0.0,0
1586284896.4906561,1,1,22.4609375,-22.4609375,-21.484375,-1.953125,0.0,0
1586284896.4945624,1,1,-47.8515625,-28.3203125,-24.90234375,-32.71484375,0.0,0
1586284896.4984686,1,1,-70.80078125,-30.2734375,-25.87890625,-35.15625,0.0,0
1586284896.502375,1,1,-28.3203125,-27.34375,-35.15625,-0.48828125,0.0,0
1586284896.5062811,1,1,25.87890625,-29.296875,-28.80859375,31.73828125,0.0,0
1586284896.5101874,1,1,14.6484375,-27.83203125,-16.11328125,15.625,0.0,0
1586284896.5140936,1,1,-59.5703125,-30.2734375,-19.53125,-33.69140625,0.0,0
1586284896.518,1,1,-72.75390625,-31.25,-24.90234375,-36.1328125,0.0,0
1586284896.5219061,1,1,-4.8828125,-20.01953125,-20.99609375,4.39453125,0.0,0
1586284896.5258124,1,1,46.38671875,-7.8125,-23.4375,28.80859375,0.0,0
1586284896.5297186,1,1,13.671875,-9.27734375,-35.15625,11.71875,0.0,0
1586284896.533625,1,1,-53.22265625,-15.625,-25.390625,-27.34375,0.0,0
1586284896.5375311,1,1,-55.17578125,-20.01953125,-20.5078125,-44.43359375,0.0,0
1586284896.5414374,1,1,-11.71875,-22.94921875,-28.3203125,-40.52734375,0.0,0
1586284896.5453436,1,1,30.2734375,-34.1796875,-30.76171875,-11.71875,0.0,0
1586284896.54925,1,1,21.484375,-38.57421875,-33.203125,-0.48828125,0.0,0
1586284896.5531561,1,1,-26.3671875,-20.99609375,-32.2265625,-35.64453125,0.0,0
1586284896.5570624,1,1,-65.91796875,-15.13671875,-26.85546875,-58.10546875,0.0,0
1586284896.5609686,1,1,-46.38671875,-20.01953125,-28.3203125,-36.62109375,0.0,0
1586284896.564875,1,1,21.97265625,-20.5078125,-33.69140625,1.46484375,0.0,0
1586284896.5687811,1,1,37.109375,-17.578125,-32.2265625,7.32421875,0.0,0
1586284896.5726874,1,1,-27.83203125,-16.11328125,-24.90234375,-24.4140625,0.0,0
1586284896.5765936,1,1,-82.51953125,-16.6015625,-21.484375,-37.109375,0.0,0
1586284896.5805,1,1,-43.9453125,-18.06640625,-29.78515625,-18.5546875,0.0,0
1586284896.5844061,1,1,21.484375,-22.94921875,-29.296875,13.18359375,0.0,0
1586284896.5883124,1,1,13.18359375,-22.4609375,-24.4140625,23.4375,0.0,0
1586284896.5922186,1,1,-20.5078125,-21.484375,-35.64453125,-16.11328125,0.0,0
1586284896.596125,1,1,-60.05859375,-19.53125,-35.64453125,-46.38671875,0.0,0
1586284896.6000311,1,1,-47.36328125,-16.11328125,-28.3203125,-42.48046875,0.0,0
1586284896.6039374,1,1,24.90234375,-22.4609375,-43.45703125,-14.6484375,0.0,0
1586284896.6078436,1,1,33.203125,-22.4609375,-42.96875,12.20703125,0.0,0
1586284896.61175,1,1,-19.04296875,-20.99609375,-35.15625,-10.25390625,0.0,0
1586284896.6156561,1,1,-60.05859375,-25.390625,-43.9453125,-47.36328125,0.0,0
1586284896.6195624,1,1,-44.921875,-22.94921875,-49.8046875,-45.41015625,0.0,0
1586284896.6234686,1,1,6.34765625,-21.484375,-36.1328125,-14.6484375,0.0,0
1586284896.627375,1,1,39.0625,-24.4140625,-20.99609375,2.44140625,0.0,0
1586284896.6312811,1,1,11.71875,-30.2734375,-22.4609375,-10.25390625,0.0,0
1586284896.6351874,1,1,-45.8984375,-26.3671875,-27.83203125,-29.78515625,0.0,0
1586284896.6390936,1,1,-58.59375,-16.6015625,-39.55078125,-31.25,0.0,0
1586284896.643,1,1,-16.6015625,-10.7421875,-32.2265625,-3.41796875,0.0,0
1586284896.6469061,1,1,38.0859375,-19.04296875,-23.92578125,22.94921875,0.0,0
1586284896.6508124,1,1,9.765625,-19.04296875,-16.11328125,-1.953125,0.0,0
1586284896.6547186,1,1,-50.78125,-25.390625,-13.18359375,-40.0390625,0.0,0
1586284896.658625,1,1,-55.6640625,-27.83203125,-26.85546875,-38.0859375,0.0,0
1586284896.6625311,1,1,0.9765625,-21.484375,-35.64453125,-3.41796875,0.0,0
1586284896.6664374,1,1,36.62109375,-20.99609375,-34.66796875,14.6484375,0.0,0
1586284896.6703436,1,1,0.48828125,-20.01953125,-29.296875,-19.04296875,0.0,0
1586284896.67425,1,1,-55.17578125,-28.80859375,-28.80859375,-62.98828125,0.0,0
1586284896.6781561,1,1,-79.58984375,-24.90234375,-30.76171875,-65.91796875,0.0,0
1586284896.6820624,1,1,-27.83203125,-14.16015625,-28.3203125,-21.484375,0.0,0
1586284896.6859686,1,1,29.78515625,-14.6484375,-28.3203125,4.39453125,0.0,0
1586284896.689875,1,1,15.625,-16.6015625,-29.296875,2.44140625,0.0,0
1586284896.6937811,1,1,-43.45703125,-20.01953125,-28.3203125,-32.2265625,0.0,0
1586284896.6976874,1,1,-62.98828125,-28.80859375,-33.203125,-46.875,0.0,0
1586284896.7015936,1,1,-9.765625,-17.08984375,-34.1796875,-23.92578125,0.0,0
1586284896.7055,1,1,47.36328125,-3.90625,-26.85546875,1.953125,0.0,0
1586284896.7094061,1,1,12.6953125,-28.80859375,-31.25,-3.41796875,0.0,0
1586284896.7133124,1,1,-48.828125,-32.2265625,-52.734375,-45.41015625,0.0,0
1586284896.7172186,1,1,-81.54296875,-17.08984375,-45.8984375,-65.4296875,0.0,0
1586284896.721125,1,1,-37.59765625,-21.97265625,-30.2734375,-40.52734375,0.0,0
1586284896.7250311,1,1,24.90234375,-24.4140625,-25.87890625,-0.48828125,0.0,0
1586284896.7289374,1,1,20.5078125,-17.08984375,-17.578125,-5.37109375,0.0,0
1586284896.7328436,1,1,-23.4375,-17.578125,-20.01953125,-39.0625,0.0,0
1586284896.73675,1,1,-64.453125,-24.90234375,-37.109375,-34.66796875,0.0,0
1586284896.7406561,1,1,-28.80859375,-26.85546875,-32.2265625,-14.6484375,0.0,0
1586284896.7445624,1,1,28.80859375,-19.04296875,-15.13671875,7.32421875,0.0,0
1586284896.7484686,1,1,28.80859375,-9.765625,-24.90234375,19.53125,0.0,0
1586284896.752375,1,1,-36.62109375,-13.18359375,-37.59765625,-9.765625,0.0,0
1586284896.7562811,1,1,-85.44921875,-22.4609375,-31.25,-35.15625,0.0,0
1586284896.7601874,1,1,-46.875,-24.4140625,-30.2734375,-31.25,0.0,0
1586284896.7640936,1,1,14.16015625,-26.3671875,-20.5078125,0.9765625,0.0,0
1586284896.768,1,1,29.78515625,-31.73828125,-18.06640625,21.97265625,0.0,0
1586284896.7719061,1,1,-22.94921875,-28.3203125,-39.55078125,-20.99609375,0.0,0
1586284896.7758124,1,1,-66.40625,-26.85546875,-48.33984375,-48.33984375,0.0,0
1586284896.7797186,1,1,-41.9921875,-33.203125,-41.015625,-27.34375,0.0,0
1586284896.783625,1,1,20.01953125,-21.97265625,-31.73828125,3.90625,0.0,0
1586284896.7875311,1,1,58.10546875,-16.11328125,-24.90234375,13.18359375,0.0,0
1586284896.7914374,1,1,11.23046875,-20.01953125,-34.1796875,-17.08984375,0.0,0
1586284896.7953436,1,1,-74.21875,-21.97265625,-45.41015625,-52.734375,0.0,0
1586284896.79925,1,1,-63.96484375,-24.4140625,-34.1796875,-42.96875,0.0,0
1586284896.8031561,1,1,0.0,-26.3671875,-32.71484375,-1.953125,0.0,0
1586284896.8070624,1,1,41.015625,-29.78515625,-41.50390625,11.23046875,0.0,0
1586284896.8109686,1,1,12.20703125,-26.85546875,-31.73828125,-13.671875,0.0,0
1586284896.814875,1,1,-37.59765625,-31.73828125,-27.83203125,-38.57421875,0.0,0
1586284896.8187811,1,1,-39.55078125,-29.78515625,-27.34375,-35.64453125,0.0,0
1586284896.8226874,1,1,4.39453125,-21.484375,-28.80859375,-10.25390625,0.0,0
1586284896.8265936,1,1,50.29296875,-21.484375,-32.2265625,7.8125,0.0,0
1586284896.8305,1,1,24.4140625,-23.92578125,-35.64453125,-2.9296875,0.0,0
1586284896.8344061,1,1,-58.10546875,-26.3671875,-33.203125,-29.296875,0.0,0
1586284896.8383124,1,1,-79.1015625,-29.296875,-43.45703125,-47.8515625,0.0,0
1586284896.8422186,1,1,-14.6484375,-26.85546875,-45.8984375,-18.06640625,0.0,0
1586284896.846125,1,1,38.57421875,-23.4375,-25.390625,4.39453125,0.0,0
1586284896.8500311,1,1,-7.32421875,-24.90234375,-28.3203125,-13.671875,0.0,0
1586284896.8539374,1,1,-79.58984375,-28.80859375,-26.3671875,-31.73828125,0.0,0
1586284896.8578436,1,1,-77.63671875,-26.3671875,-22.4609375,-43.9453125,0.0,0
1586284896.86175,1,1,-10.25390625,-17.578125,-19.04296875,-22.4609375,0.0,0
1586284896.8656561,1,1,43.9453125,-14.16015625,-12.6953125,4.39453125,0.0,0
1586284896.8695624,1,1,29.78515625,-17.578125,-20.01953125,2.44140625,0.0,0
1586284896.8734686,1,1,-31.73828125,-24.4140625,-27.83203125,-28.80859375,0.0,0
1586284896.877375,1,1,-49.31640625,-22.94921875,-19.53125,-41.9921875,0.0,0
1586284896.8812811,1,1,-11.23046875,-17.08984375,-29.296875,-14.16015625,0.0,0
1586284896.8851874,1,1,34.1796875,-23.92578125,-45.41015625,6.8359375,0.0,0
1586284896.8890936,1,1,30.76171875,-30.76171875,-38.57421875,0.9765625,0.0,0
1586284896.893,1,1,-30.2734375,-25.87890625,-41.015625,-20.99609375,0.0,0
1586284896.8969061,1,1,-58.10546875,-14.6484375,-31.25,-47.8515625,0.0,0
1586284896.9008124,1,1,-25.87890625,-14.16015625,-19.53125,-27.83203125,0.0,0
1586284896.9047186,1,1,13.18359375,-19.04296875,-26.3671875,6.8359375,0.0,0
1586284896.908625,1,1,38.57421875,-17.08984375,-29.78515625,-4.8828125,0.0,0
1586284896.9125311,1,1,-9.27734375,-22.4609375,-24.4140625,-36.1328125,0.0,0
1586284896.9164374,1,1,-59.08203125,-25.87890625,-20.5078125,-58.10546875,0.0,0
1586284896.9203436,1,1,-27.34375,-20.99609375,-21.484375,-35.15625,0.0,0
1586284896.92425,2,3,45.41015625,-11.71875,-43.9453125,9.27734375,0.0,0
1586284896.9281561,2,3,56.640625,-8.30078125,-57.6171875,15.625,0.0,0
1586284896.9320624,2,3,-7.32421875,-20.01953125,-18.5546875,-14.6484375,0.0,0
1586284896.9359686,2,3,-38.0859375,-20.5078125,10.25390625,-35.15625,0.0,0
1586284896.939875,2,3,-27.83203125,-8.7890625,2.9296875,-23.4375,0.0,0
1586284896.9437811,2,3,17.578125,-12.6953125,-17.578125,-7.32421875,0.0,0
1586284896.9476874,2,3,34.1796875,-21.484375,-18.5546875,-2.44140625,0.0,0
1586284896.9515936,2,3,-2.9296875,-19.53125,-15.625,-20.5078125,0.0,0
1586284896.9555,2,3,-41.015625,-11.23046875,-12.20703125,-48.828125,0.0,0
1586284896.9594061,2,3,-41.015625,-13.18359375,-12.6953125,-41.9921875,0.0,0
1586284896.9633124,2,3,18.06640625,-19.04296875,-15.13671875,-9.27734375,0.0,0
1586284896.9672186,2,3,58.10546875,-23.4375,-19.53125,1.953125,0.0,0
1586284896.971125,2,3,14.16015625,-19.04296875,-27.83203125,-10.25390625,0.0,0
1586284896.9750311,2,3,-50.29296875,-10.7421875,-30.76171875,-24.4140625,0.0,0
1586284896.9789374,2,3,-53.22265625,-12.6953125,-30.2734375,-38.57421875,0.0,0
1586284896.9828436,2,3,4.39453125,-18.06640625,-23.4375,-9.27734375,0.0,0
1586284896.98675,2,3,38.0859375,-25.390625,-26.3671875,9.27734375,0.0,0
1586284896.9906561,2,3,1.953125,-27.34375,-21.97265625,-4.39453125,0.0,0
1586284896.9945624,2,3,-58.10546875,-21.97265625,-8.7890625,-35.15625,0.0,0
1586284896.9984686,2,3,-49.8046875,-17.08984375,-18.06640625,-44.43359375,0.0,0
1586284897.002375,2,3,0.0,-13.18359375,-41.015625,-9.765625,0.0,0
1586284897.0062811,2,3,20.01953125,-13.671875,-38.0859375,19.04296875,0.0,0
1586284897.0101874,2,3,11.71875,-24.4140625,-23.4375,2.9296875,0.0,0
1586284897.0140936,2,3,-36.1328125,-36.1328125,-27.83203125,-27.34375,0.0,0
1586284897.018,2,3,-65.4296875,-31.73828125,-29.296875,-38.57421875,0.0,0
1586284897.0219061,2,3,-17.08984375,-22.4609375,-33.69140625,-13.671875,0.0,0
1586284897.0258124,2,3,62.01171875,-18.5546875,-30.76171875,25.87890625,0.0,0
1586284897.0297186,2,3,25.390625,-11.23046875,-24.4140625,0.0,0.0,0
1586284897.033625,2,3,-60.05859375,-14.16015625,-22.4609375,-37.59765625,0.0,0
1586284897.0375311,2,3,-79.58984375,-26.3671875,-19.04296875,-35.64453125,0.0,0
1586284897.0414374,2,3,-34.66796875,-31.73828125,-13.18359375,-15.13671875,0.0,0
1586284897.0453436,2,3,10.7421875,-29.296875,-14.6484375,6.8359375,0.0,0
1586284897.04925,2,3,-5.859375,-28.3203125,-21.97265625,0.48828125,0.0,0
1586284897.0531561,2,3,-60.05859375,-34.66796875,-10.25390625,-35.64453125,0.0,0
1586284897.0570624,2,3,-90.33203125,-38.0859375,-4.8828125,-60.546875,0.0,0
1586284897.0609686,2,3,-48.33984375,-38.57421875,-19.04296875,-34.66796875,0.0,0
1586284897.064875,2,3,12.6953125,-38.57421875,-28.80859375,9.27734375,0.0,0
1586284897.0687811,2,3,21.97265625,-38.57421875,-25.87890625,1.953125,0.0,0
1586284897.0726874,2,3,-42.48046875,-36.62109375,-18.06640625,-40.52734375,0.0,0
1586284897.0765936,2,3,-89.35546875,-43.45703125,-21.484375,-58.59375,0.0,0
1586284897.0805,2,3,-47.8515625,-48.828125,-29.78515625,-37.109375,0.0,0
1586284897.0844061,2,3,13.18359375,-37.109375,-27.83203125,-2.9296875,0.0,0
1586284897.0883124,2,3,2.9296875,-24.90234375,-24.4140625,-4.8828125,0.0,0
1586284897.0922186,2,3,-47.8515625,-28.3203125,-24.90234375,-37.59765625,0.0,0
1586284897.096125,2,3,-80.078125,-29.78515625,-26.85546875,-62.01171875,0.0,0
1586284897.1000311,2,3,-51.26953125,-27.34375,-31.25,-44.921875,0.0,0
1586284897.1039374,2,3,5.37109375,-23.92578125,-34.1796875,-12.6953125,0.0,0
1586284897.1078436,2,3,17.08984375,-25.390625,-19.04296875,1.953125,0.0,0
1586284897.11175,2,3,-33.203125,-34.66796875,-4.8828125,-8.7890625,0.0,0
1586284897.1156561,2,3,-70.3125,-33.69140625,-12.6953125,-42.96875,0.0,0
1586284897.1195624,2,3,-58.59375,-27.83203125,-30.2734375,-38.0859375,0.0,0
1586284897.1234686,2,3,2.44140625,-17.578125,-31.25,15.13671875,0.0,0
1586284897.127375,2,3,39.55078125,-4.8828125,0.0,25.87890625,0.0,0
1586284897.1312811,2,3,6.34765625,-16.6015625,2.9296875,10.7421875,0.0,0
1586284897.1351874,2,3,-52.734375,-34.1796875,-21.484375,-8.7890625,0.0,0
1586284897.1390936,2,3,-59.08203125,-32.71484375,-17.08984375,-21.484375,0.0,0
1586284897.143,2,3,-1.46484375,-41.9921875,-15.13671875,10.7421875,0.0,0
1586284897.1469061,2,3,23.92578125,-41.50390625,-27.83203125,23.4375,0.0,0
1586284897.1508124,2,3,-13.671875,-38.57421875,-34.1796875,-12.20703125,0.0,0
1586284897.1547186,2,3,-59.5703125,-35.15625,-23.92578125,-49.8046875,0.0,0
1586284897.158625,2,3,-75.68359375,-23.92578125,-18.5546875,-56.640625,0.0,0
1586284897.1625311,2,3,-44.43359375,-20.01953125,-22.4609375,-21.97265625,0.0,0
1586284897.1664374,2,3,25.87890625,-24.4140625,-19.53125,5.37109375,0.0,0
1586284897.1703436,2,3,11.71875,-36.1328125,-34.1796875,-18.5546875,0.0,0
1586284897.17425,2,3,-54.19921875,-38.57421875,-40.52734375,-49.8046875,0.0,0
1586284897.1781561,2,3,-70.80078125,-33.203125,-26.3671875,-48.828125,0.0,0
1586284897.1820624,2,3,-37.59765625,-31.25,-19.04296875,-20.99609375,0.0,0
1586284897.1859686,2,3,12.6953125,-27.83203125,-18.06640625,23.4375,0.0,0
1586284897.189875,2,3,-11.71875,-30.2734375,-15.625,10.7421875,0.0,0
1586284897.1937811,2,3,-67.3828125,-36.1328125,-18.5546875,-31.25,0.0,0
1586284897.1976874,2,3,-68.359375,-30.76171875,-27.34375,-46.38671875,0.0,0
1586284897.2015936,2,3,-26.85546875,-28.80859375,-22.4609375,-21.97265625,0.0,0
1586284897.2055,2,3,7.8125,-25.390625,-21.97265625,12.6953125,0.0,0
1586284897.2094061,2,3,15.13671875,-19.04296875,-22.94921875,10.7421875,0.0,0
1586284897.2133124,2,3,-40.0390625,-20.5078125,-26.85546875,-28.80859375,0.0,0
1586284897.2172186,2,3,-91.796875,-24.90234375,-35.64453125,-60.05859375,0.0,0
1586284897.221125,2,3,-37.109375,-25.390625,-25.87890625,-29.78515625,0.0,0
1586284897.2250311,2,3,17.08984375,-28.80859375,-23.4375,13.18359375,0.0,0
1586284897.2289374,2,3,9.27734375,-40.0390625,-17.578125,1.953125,0.0,0
1586284897.2328436,2,3,-52.24609375,-40.0390625,-19.53125,-30.2734375,0.0,0
1586284897.23675,2,3,-101.07421875,-28.3203125,-25.390625,-54.19921875,0.0,0
1586284897.2406561,2,3,-70.3125,-22.94921875,-23.4375,-41.015625,0.0,0
1586284897.2445624,2,3,-8.7890625,-20.01953125,-35.64453125,-0.9765625,0.0,0
1586284897.2484686,2,3,10.25390625,-14.6484375,-34.66796875,8.30078125,0.0,0
1586284897.252375,2,3,-29.296875,-15.13671875,-25.390625,-28.80859375,0.0,0
1586284897.2562811,2,3,-74.70703125,-15.625,-28.3203125,-52.24609375,0.0,0
1586284897.2601874,2,3,-45.41015625,-15.13671875,-35.64453125,-38.57421875,0.0,0
1586284897.2640936,2,3,12.20703125,-19.53125,-33.69140625,-7.8125,0.0,0
1586284897.268,2,3,28.80859375,-26.85546875,-25.390625,13.671875,0.0,0
1586284897.2719061,2,3,-14.16015625,-32.71484375,-25.390625,-10.7421875,0.0,0
1586284897.2758124,2,3,-66.40625,-35.64453125,-34.66796875,-44.43359375,0.0,0
1586284897.2797186,2,3,-45.41015625,-28.80859375,-37.59765625,-18.06640625,0.0,0
1586284897.283625,2,3,-5.859375,-21.484375,-34.66796875,6.8359375,0.0,0
1586284897.2875311,2,3,17.08984375,-19.04296875,-29.296875,-3.41796875,0.0,0
1586284897.2914374,2,3,2.44140625,-16.6015625,-23.4375,-26.3671875,0.0,0
1586284897.2953436,2,3,-41.015625,-20.5078125,-34.1796875,-54.6875,0.0,0
1586284897.29925,2,3,-45.8984375,-21.97265625,-44.921875,-47.36328125,0.0,0
1586284897.3031561,2,3,10.7421875,-17.08984375,-43.9453125,-7.8125,0.0,0
1586284897.3070624,2,3,46.38671875,-15.13671875,-43.45703125,16.6015625,0.0,0
1586284897.3109686,2,3,14.16015625,-8.7890625,-43.45703125,-5.37109375,0.0,0
1586284897.314875,2,3,-50.29296875,-7.8125,-40.52734375,-41.9921875,0.0,0
1586284897.3187811,2,3,-63.4765625,-17.578125,-40.0390625,-40.0390625,0.0,0
1586284897.3226874,2,3,-12.6953125,-31.73828125,-41.50390625,-10.25390625,0.0,0
1586284897.3265936,2,3,34.1796875,-24.90234375,-40.0390625,13.671875,0.0,0
1586284897.3305,2,3,2.44140625,-7.8125,-36.1328125,-1.953125,0.0,0
1586284897.3344061,2,3,-64.94140625,-10.7421875,-31.73828125,-36.1328125,0.0,0
1586284897.3383124,2,3,-69.3359375,-15.625,-29.296875,-39.0625,0.0,0
1586284897.3422186,2,3,-16.6015625,-17.08984375,-29.78515625,-22.94921875,0.0,0
1586284897.346125,2,3,47.36328125,-20.01953125,-34.1796875,13.18359375,0.0,0
1586284897.3500311,2,3,41.015625,-31.73828125,-32.2265625,18.5546875,0.0,0
1586284897.3539374,2,3,-44.921875,-39.55078125,-27.83203125,-23.4375,0.0,0
1586284897.3578436,2,3,-55.17578125,-23.92578125,-34.66796875,-27.34375,0.0,0
1586284897.36175,2,3,10.7421875,-14.6484375,-47.36328125,6.8359375,0.0,0
1586284897.3656561,2,3,59.08203125,-15.625,-46.875,26.3671875,0.0,0
1586284897.3695624,2,3,49.31640625,-11.71875,-27.34375,10.25390625,0.0,0
1586284897.3734686,2,3,-9.765625,-1.953125,-21.97265625,-36.62109375,0.0,0
1586284897.377375,2,3,-44.921875,0.0,-31.25,-53.7109375,0.0,0
1586284897.3812811,2,3,-12.6953125,-15.625,-39.0625,-33.69140625,0.0,0
1586284897.3851874,2,3,28.80859375,-18.06640625,-37.59765625,-13.18359375,0.0,0
1586284897.3890936,2,3,32.2265625,-18.5546875,-34.66796875,-20.01953125,0.0,0
1586284897.393,2,3,-20.5078125,-23.92578125,-28.3203125,-37.59765625,0.0,0
1586284897.3969061,2,3,-65.4296875,-19.04296875,-31.25,-49.8046875,0.0,0
1586284897.4008124,2,3,-38.0859375,-20.99609375,-45.41015625,-32.71484375,0.0,0
1586284897.4047186,2,3,18.06640625,-23.4375,-38.0859375,-0.48828125,0.0,0
1586284897.408625,2,3,26.85546875,-25.87890625,-31.25,9.27734375,0.0,0
1586284897.4125311,2,3,-21.97265625,-31.73828125,-33.69140625,-16.11328125,0.0,0
1586284897.4164374,2,3,-57.6171875,-29.296875,-44.43359375,-30.2734375,0.0,0
1586284897.4203436,2,3,-49.8046875,-29.296875,-44.921875,-9.27734375,0.0,0
1586284897.42425,2,3,5.859375,-35.15625,-25.87890625,22.4609375,0.0,0
1586284897.4281561,2,3,36.62109375,-34.66796875,-17.578125,38.0859375,0.0,0
1586284897.4320624,2,3,-18.5546875,-21.97265625,-22.4609375,2.44140625,0.0,0
1586284897.4359686,2,3,-64.94140625,-19.04296875,-24.4140625,-30.76171875,0.0,0
1586284897.439875,2,3,-25.87890625,-18.5546875,-29.296875,-11.71875,0.0,0
1586284897.4437811,2,3,33.203125,-14.16015625,-22.94921875,28.3203125,0.0,0
1586284897.4476874,2,3,59.5703125,-20.5078125,-10.7421875,35.64453125,0.0,0
1586284897.4515936,2,3,16.11328125,-33.203125,-20.99609375,-7.32421875,0.0,0
1586284897.4555,2,3,-59.5703125,-28.3203125,-19.04296875,-28.80859375,0.0,0
1586284897.4594061,2,3,-46.875,-22.4609375,-14.6484375,-24.90234375,0.0,0
1586284897.4633124,2,3,18.06640625,-22.94921875,-31.25,-6.8359375,0.0,0
1586284897.4672186,2,3,36.62109375,-7.32421875,-29.78515625,2.9296875,0.0,0
1586284897.471125,2,3,14.6484375,-6.8359375,-23.92578125,-22.4609375,0.0,0
1586284897.4750311,2,3,-24.4140625,-18.5546875,-20.99609375,-42.96875,0.0,0
1586284897.4789374,2,3,-28.3203125,-10.7421875,-20.5078125,-44.43359375,0.0,0
1586284897.4828436,2,3,19.04296875,-12.20703125,-25.390625,-16.11328125,0.0,0
1586284897.48675,2,3,56.15234375,-17.578125,-31.25,7.32421875,0.0,0
1586284897.4906561,2,3,9.765625,-16.11328125,-37.59765625,-12.6953125,0.0,0
1586284897.4945624,2,3,-53.22265625,-19.53125,-43.45703125,-31.73828125,0.0,0
1586284897.4984686,2,3,-54.19921875,-22.94921875,-46.38671875,-24.90234375,0.0,0
1586284897.502375,2,3,7.32421875,-20.01953125,-31.25,0.48828125,0.0,0
1586284897.5062811,2,3,58.59375,-18.06640625,-40.52734375,20.5078125,0.0,0
1586284897.5101874,2,3,19.53125,-17.578125,-44.43359375,17.08984375,0.0,0
1586284897.5140936,2,3,-38.57421875,-16.6015625,-18.5546875,-13.18359375,0.0,0
1586284897.518,2,3,-49.31640625,-14.6484375,-18.06640625,-18.5546875,0.0,0
1586284897.5219061,2,3,5.859375,-17.578125,-27.83203125,6.8359375,0.0,0
1586284897.5258124,2,3,61.03515625,-26.3671875,-30.2734375,30.2734375,0.0,0
1586284897.5297186,2,3,31.25,-25.87890625,-29.78515625,24.4140625,0.0,0
1586284897.533625,2,3,-41.9921875,-26.3671875,-30.2734375,-8.7890625,0.0,0
1586284897.5375311,2,3,-62.01171875,-26.85546875,-25.87890625,-25.390625,0.0,0
1586284897.5414374,2,3,-10.25390625,-20.01953125,-19.53125,-8.30078125,0.0,0
1586284897.5453436,2,3,47.36328125,-20.5078125,-32.71484375,11.23046875,0.0,0
1586284897.54925,2,3,36.62109375,-27.83203125,-42.96875,2.44140625,0.0,0
1586284897.5531561,2,3,-27.83203125,-28.3203125,-35.15625,-33.69140625,0.0,0
1586284897.5570624,2,3,-73.73046875,-19.04296875,-33.69140625,-57.12890625,0.0,0
1586284897.5609686,2,3,-29.78515625,-18.5546875,-28.80859375,-33.203125,0.0,0
1586284897.564875,2,3,38.57421875,-17.578125,-20.01953125,5.859375,0.0,0
1586284897.5687811,2,3,25.87890625,-20.01953125,-22.4609375,-7.8125,0.0,0
1586284897.5726874,2,3,-40.52734375,-23.92578125,-23.92578125,-51.7578125,0.0,0
1586284897.5765936,2,3,-71.77734375,-21.484375,-20.99609375,-61.03515625,0.0,0
1586284897.5805,2,3,-37.109375,-19.04296875,-19.53125,-31.25,0.0,0
1586284897.5844061,2,3,17.578125,-22.94921875,-13.18359375,7.8125,0.0,0
1586284897.5883124,2,3,23.4375,-34.66796875,-13.18359375,12.20703125,0.0,0
1586284897.5922186,2,3,-34.1796875,-35.64453125,-19.53125,-13.18359375,0.0,0
1586284897.596125,2,3,-77.1484375,-25.87890625,-15.13671875,-26.85546875,0.0,0
1586284897.6000311,2,3,-46.38671875,-28.80859375,-13.671875,-13.18359375,0.0,0
1586284897.6039374,2,3,-4.39453125,-32.71484375,-28.80859375,4.39453125,0.0,0
1586284897.6078436,2,3,10.25390625,-40.0390625,-35.15625,4.8828125,0.0,0
1586284897.61175,2,3,-28.80859375,-41.9921875,-28.80859375,-16.11328125,0.0,0
1586284897.6156561,2,3,-86.9140625,-34.1796875,-28.80859375,-48.33984375,0.0,0
1586284897.6195624,2,3,-82.51953125,-31.73828125,-28.80859375,-32.2265625,0.0,0
1586284897.6234686,2,3,-18.5546875,-25.390625,-23.4375,-8.30078125,0.0,0
1586284897.627375,2,3,20.01953125,-25.390625,-19.04296875,0.48828125,0.0,0
1586284897.6312811,2,3,-13.671875,-28.3203125,-19.53125,-8.7890625,0.0,0
1586284897.6351874,2,3,-53.7109375,-29.296875,-20.5078125,-41.015625,0.0,0
1586284897.6390936,2,3,-48.33984375,-20.99609375,-28.80859375,-48.828125,0.0,0
1586284897.643,2,3,-8.7890625,-21.484375,-34.66796875,-14.6484375,0.0,0
1586284897.6469061,2,3,24.4140625,-33.69140625,-19.53125,3.41796875,0.0,0
1586284897.6508124,2,3,-1.46484375,-35.15625,-25.390625,-19.53125,0.0,0
1586284897.6547186,2,3,-65.4296875,-32.2265625,-38.57421875,-55.17578125,0.0,0
1586284897.658625,2,3,-69.3359375,-27.34375,-25.87890625,-64.453125,0.0,0
1586284897.6625311,2,3,0.48828125,-26.3671875,-20.5078125,-29.296875,0.0,0
1586284897.6664374,2,3,26.85546875,-28.80859375,-27.83203125,-3.90625,0.0,0
1586284897.6703436,2,3,-13.671875,-26.3671875,-26.85546875,-19.53125,0.0,0
1586284897.67425,2,3,-62.98828125,-23.92578125,-23.92578125,-42.48046875,0.0,0
1586284897.6781561,2,3,-73.2421875,-27.34375,-13.671875,-48.33984375,0.0,0
1586284897.6820624,2,3,-20.5078125,-32.71484375,-22.4609375,-22.4609375,0.0,0
1586284897.6859686,2,3,23.92578125,-37.109375,-39.55078125,10.7421875,0.0,0
1586284897.689875,2,3,13.671875,-40.0390625,-39.55078125,11.71875,0.0,0
1586284897.6937811,2,3,-51.7578125,-31.25,-35.64453125,-31.73828125,0.0,0
1586284897.6976874,2,3,-92.28515625,-25.390625,-43.45703125,-46.875,0.0,0
1586284897.7015936,2,3,-40.52734375,-27.83203125,-40.0390625,-20.99609375,0.0,0
1586284897.7055,2,3,18.5546875,-25.390625,-39.0625,4.8828125,0.0,0
1586284897.7094061,2,3,21.484375,-21.484375,-34.1796875,13.18359375,0.0,0
1586284897.7133124,2,3,-30.2734375,-24.90234375,-24.4140625,-21.484375,0.0,0
1586284897.7172186,2,3,-80.078125,-26.85546875,-21.97265625,-48.33984375,0.0,0
1586284897.721125,2,3,-43.45703125,-30.76171875,-22.94921875,-35.64453125,0.0,0
1586284897.7250311,2,3,27.83203125,-26.3671875,-29.296875,-0.48828125,0.0,0
1586284897.7289374,2,3,22.94921875,-20.99609375,-41.015625,3.90625,0.0,0
1586284897.7328436,2,3,-35.15625,-18.06640625,-46.38671875,-35.64453125,0.0,0
1586284897.73675,2,3,-81.0546875,-21.484375,-32.2265625,-52.24609375,0.0,0
1586284897.7406561,2,3,-65.91796875,-22.94921875,-25.87890625,-32.71484375,0.0,0
1586284897.7445624,2,3,18.06640625,-18.5546875,-38.57421875,-0.48828125,0.0,0
1586284897.7484686,2,3,46.875,-14.16015625,-35.64453125,14.16015625,0.0,0
1586284897.752375,2,3,-4.39453125,-19.53125,-11.71875,-5.859375,0.0,0
1586284897.7562811,2,3,-56.640625,-27.83203125,-9.27734375,-32.71484375,0.0,0
1586284897.7601874,2,3,-37.109375,-28.3203125,-13.671875,-21.484375,0.0,0
1586284897.7640936,2,3,20.5078125,-35.64453125,-18.06640625,6.8359375,0.0,0
1586284897.768,2,3,36.1328125,-35.64453125,-31.73828125,9.27734375,0.0,0
1586284897.7719061,2,3,-10.7421875,-27.34375,-30.76171875,-18.5546875,0.0,0
1586284897.7758124,2,3,-57.12890625,-25.390625,-30.2734375,-44.921875,0.0,0
1586284897.7797186,2,3,-38.0859375,-20.5078125,-33.69140625,-30.76171875,0.0,0
1586284897.783625,2,3,27.83203125,-9.765625,-25.390625,5.859375,0.0,0
1586284897.7875311,2,3,53.22265625,-14.6484375,-23.92578125,15.13671875,0.0,0
1586284897.7914374,2,3,3.41796875,-21.484375,-28.3203125,-3.41796875,0.0,0
1586284897.7953436,2,3,-52.734375,-22.4609375,-31.73828125,-33.203125,0.0,0
1586284897.79925,2,3,-46.875,-33.69140625,-32.71484375,-38.57421875,0.0,0
1586284897.8031561,2,3,13.18359375,-31.73828125,-18.06640625,7.32421875,0.0,0
1586284897.8070624,2,3,47.8515625,-17.08984375,-20.01953125,36.1328125,0.0,0
1586284897.8109686,2,3,11.23046875,-19.53125,-32.2265625,6.34765625,0.0,0
1586284897.814875,2,3,-49.8046875,-31.73828125,-29.296875,-33.69140625,0.0,0
1586284897.8187811,2,3,-55.6640625,-33.69140625,-26.3671875,-27.83203125,0.0,0
1586284897.8226874,2,3,21.484375,-31.25,-20.99609375,16.6015625,0.0,0
1586284897.8265936,2,3,63.96484375,-24.4140625,-15.625,25.390625,0.0,0
1586284897.8305,2,3,11.71875,-20.5078125,-24.90234375,6.8359375,0.0,0
1586284897.8344061,2,3,-44.921875,-22.94921875,-30.2734375,-10.7421875,0.0,0
1586284897.8383124,2,3,-56.15234375,-20.01953125,-29.78515625,-21.484375,0.0,0
1586284897.8422186,2,3,-12.6953125,-33.203125,-34.1796875,-19.04296875,0.0,0
1586284897.846125,2,3,33.69140625,-38.57421875,-38.57421875,4.39453125,0.0,0
1586284897.8500311,2,3,13.18359375,-25.87890625,-37.109375,-1.953125,0.0,0
1586284897.8539374,2,3,-53.22265625,-24.90234375,-31.73828125,-31.25,0.0,0
1586284897.8578436,2,3,-63.4765625,-23.92578125,-30.2734375,-35.15625,0.0,0
1586284897.86175,2,3,-9.765625,-20.99609375,-28.3203125,-10.25390625,0.0,0
1586284897.8656561,2,3,35.64453125,-24.4140625,-33.69140625,7.32421875,0.0,0
1586284897.8695624,2,3,21.97265625,-26.3671875,-38.0859375,-12.6953125,0.0,0
1586284897.8734686,2,3,-59.08203125,-29.296875,-41.9921875,-52.24609375,0.0,0
1586284897.877375,2,3,-82.51953125,-28.3203125,-39.0625,-51.7578125,0.0,0
1586284897.8812811,2,3,-13.18359375,-26.3671875,-23.4375,-17.578125,0.0,0
1586284897.8851874,2,3,46.875,-35.15625,-26.85546875,13.671875,0.0,0
1586284897.8890936,2,3,37.109375,-32.2265625,-33.69140625,10.25390625,0.0,0
1586284897.893,2,3,-17.578125,-31.25,-26.3671875,-20.01953125,0.0,0
1586284897.8969061,2,3,-48.828125,-28.3203125,-18.5546875,-37.59765625,0.0,0
1586284897.9008124,2,3,-19.04296875,-22.4609375,-14.6484375,-17.578125,0.0,0
1586284897.9047186,2,3,37.109375,-20.01953125,-17.08984375,12.20703125,0.0,0
1586284897.908625,2,3,40.52734375,-16.6015625,-25.390625,15.13671875,0.0,0
1586284897.9125311,2,3,-23.92578125,-27.83203125,-40.0390625,-8.30078125,0.0,0
1586284897.9164374,2,3,-67.3828125,-39.55078125,-47.8515625,-40.52734375,0.0,0
1586284897.9203436,2,3,-38.57421875,-35.64453125,-31.73828125,-24.4140625,0.0,0
1586284897.92425,2,3,19.53125,-21.97265625,-13.671875,10.7421875,0.0,0
1586284897.9281561,2,3,45.41015625,-20.99609375,-17.08984375,6.8359375,0.0,0
1586284897.9320624,2,3,-3.41796875,-26.85546875,-24.90234375,-20.5078125,0.0,0
1586284897.9359686,2,3,-55.6640625,-28.80859375,-24.90234375,-36.1328125,0.0,0
1586284897.939875,2,3,-28.80859375,-28.3203125,-16.6015625,-16.6015625,0.0,0
1586284897.9437811,2,3,26.85546875,-25.87890625,-19.04296875,10.25390625,0.0,0
1586284897.9476874,2,3,45.41015625,-28.3203125,-26.3671875,17.08984375,0.0,0
1586284897.9515936,2,3,-5.37109375,-30.76171875,-21.484375,-14.16015625,0.0,0
1586284897.9555,2,3,-61.5234375,-31.25,-30.2734375,-45.8984375,0.0,0
1586284897.9594061,2,3,-55.17578125,-24.90234375,-37.109375,-35.15625,0.0,0
1586284897.9633124,2,3,7.8125,-26.3671875,-21.484375,2.44140625,0.0,0
1586284897.9672186,2,3,41.9921875,-29.78515625,-11.71875,19.04296875,0.0,0
1586284897.971125,2,3,-4.8828125,-23.92578125,-17.08984375,-9.27734375,0.0,0
1586284897.9750311,2,3,-53.22265625,-33.203125,-21.97265625,-41.9921875,0.0,0
1586284897.9789374,2,3,-41.50390625,-36.62109375,-31.73828125,-37.59765625,0.0,0
1586284897.9828436,2,3,18.5546875,-20.99609375,-39.0625,1.46484375,0.0,0
1586284897.98675,2,3,32.2265625,-22.94921875,-30.76171875,14.6484375,0.0,0
1586284897.9906561,2,3,-4.39453125,-30.2734375,-36.62109375,-24.90234375,0.0,0
1586284897.9945624,2,3,-51.26953125,-32.71484375,-38.0859375,-52.24609375,0.0,0
1586284897.9984686,2,3,-50.29296875,-37.59765625,-29.296875,-48.33984375,0.0,0
1586284898.002375,2,3,0.9765625,-32.71484375,-28.3203125,-19.53125,0.0,0
1586284898.0062811,2,3,32.2265625,-23.92578125,-31.73828125,3.90625,0.0,0
1586284898.0101874,2,3,18.06640625,-25.87890625,-31.25,-5.37109375,0.0,0
1586284898.0140936,2,3,-46.875,-38.0859375,-23.92578125,-29.78515625,0.0,0
1586284898.018,2,3,-64.94140625,-36.62109375,-18.06640625,-41.9921875,0.0,0
1586284898.0219061,2,3,-2.9296875,-29.296875,-21.484375,-30.2734375,0.0,0
1586284898.0258124,2,3,33.69140625,-30.76171875,-26.85546875,-8.30078125,0.0,0
1586284898.0297186,2,3,9.765625,-28.80859375,-25.390625,-12.20703125,0.0,0
1586284898.033625,2,3,-44.43359375,-29.78515625,-25.390625,-38.0859375,0.0,0
1586284898.0375311,2,3,-81.0546875,-25.390625,-31.25,-55.17578125,0.0,0
1586284898.0414374,2,3,-40.0390625,-20.99609375,-42.48046875,-26.85546875,0.0,0
1586284898.0453436,2,3,26.3671875,-34.66796875,-44.43359375,15.13671875,0.0,0
1586284898.04925,2,3,16.6015625,-31.73828125,-43.45703125,13.18359375,0.0,0
1586284898.0531561,2,3,-41.50390625,-28.80859375,-50.78125,-25.390625,0.0,0
1586284898.0570624,2,3,-61.03515625,-30.76171875,-29.296875,-48.33984375,0.0,0
1586284898.0609686,2,3,-28.3203125,-23.4375,-14.16015625,-24.90234375,0.0,0
1586284898.064875,2,3,22.94921875,-26.3671875,-23.4375,6.8359375,0.0,0
1586284898.0687811,2,3,23.4375,-27.83203125,-23.4375,7.8125,0.0,0
1586284898.0726874,2,3,-28.3203125,-26.3671875,-20.01953125,-18.06640625,0.0,0
1586284898.0765936,2,3,-58.10546875,-21.97265625,-30.2734375,-41.9921875,0.0,0
1586284898.0805,2,3,-41.9921875,-23.92578125,-32.2265625,-36.1328125,0.0,0
1586284898.0844061,2,3,21.97265625,-32.2265625,-25.87890625,-5.37109375,0.0,0
1586284898.0883124,2,3,42.48046875,-24.4140625,-27.34375,6.34765625,0.0,0
1586284898.0922186,2,3,-21.484375,-20.5078125,-35.64453125,-19.04296875,0.0,0
1586284898.096125,2,3,-81.0546875,-13.671875,-22.94921875,-53.22265625,0.0,0
1586284898.1000311,2,3,-64.453125,-12.20703125,-0.48828125,-37.109375,0.0,0
1586284898.1039374,2,3,9.27734375,-23.92578125,-22.4609375,0.0,0.0,0
1586284898.1078436,2,3,43.9453125,-20.01953125,-33.203125,3.41796875,0.0,0
1586284898.11175,2,3,13.671875,-21.97265625,-19.53125,-16.6015625,0.0,0
1586284898.1156561,2,3,-50.78125,-41.9921875,-25.87890625,-32.71484375,0.0,0
1586284898.1195624,2,3,-58.10546875,-42.48046875,-37.59765625,-24.4140625,0.0,0
1586284898.1234686,2,3,3.41796875,-29.296875,-41.9921875,1.46484375,0.0,0
1586284898.127375,2,3,39.55078125,-29.78515625,-39.55078125,6.8359375,0.0,0
1586284898.1312811,2,3,-3.90625,-24.4140625,-42.96875,-25.87890625,0.0,0
1586284898.1351874,2,3,-64.94140625,-17.08984375,-39.55078125,-56.640625,0.0,0
1586284898.1390936,2,3,-64.453125,-19.53125,-32.2265625,-48.828125,0.0,0
1586284898.143,2,3,-5.859375,-23.92578125,-31.73828125,-13.18359375,0.0,0
1586284898.1469061,2,3,28.3203125,-21.484375,-32.71484375,15.625,0.0,0
1586284898.1508124,2,3,-9.27734375,-21.97265625,-47.36328125,-10.25390625,0.0,0
1586284898.1547186,2,3,-61.03515625,-28.80859375,-53.22265625,-52.734375,0.0,0
1586284898.158625,2,3,-42.48046875,-37.59765625,-46.38671875,-50.78125,0.0,0
1586284898.1625311,2,3,11.23046875,-33.69140625,-51.7578125,-7.8125,0.0,0
1586284898.1664374,2,3,37.109375,-29.296875,-49.8046875,15.13671875,0.0,0
1586284898.1703436,2,3,1.953125,-24.90234375,-42.96875,-9.27734375,0.0,0
1586284898.17425,2,3,-64.94140625,-19.53125,-56.640625,-47.36328125,0.0,0
1586284898.1781561,2,3,-67.87109375,-20.99609375,-35.15625,-51.7578125,0.0,0
1586284898.1820624,2,3,-11.23046875,-26.85546875,-19.04296875,-20.01953125,0.0,0
1586284898.1859686,2,3,39.55078125,-27.34375,-19.53125,11.23046875,0.0,0
1586284898.189875,2,3,18.5546875,-27.34375,-17.578125,-1.46484375,0.0,0
1586284898.1937811,2,3,-51.7578125,-25.390625,-34.66796875,-44.43359375,0.0,0
1586284898.1976874,2,3,-55.17578125,-20.01953125,-34.1796875,-46.38671875,0.0,0
1586284898.2015936,2,3,0.0,-18.06640625,-27.83203125,-10.7421875,0.0,0
1586284898.2055,2,3,27.34375,-20.99609375,-34.1796875,18.5546875,0.0,0
1586284898.2094061,2,3,17.08984375,-19.53125,-39.55078125,5.37109375,0.0,0
1586284898.2133124,2,3,-32.71484375,-16.6015625,-45.8984375,-28.80859375,0.0,0
1586284898.2172186,2,3,-76.171875,-16.6015625,-44.43359375,-55.6640625,0.0,0
1586284898.221125,2,3,-44.921875,-32.71484375,-38.57421875,-41.9921875,0.0,0
1586284898.2250311,2,3,16.11328125,-40.0390625,-47.8515625,-0.48828125,0.0,0
1586284898.2289374,2,3,10.25390625,-16.11328125,-37.59765625,-4.8828125,0.0,0
1586284898.2328436,2,3,-46.875,-13.671875,-27.83203125,-43.45703125,0.0,0
1586284898.23675,2,3,-72.75390625,-23.4375,-34.66796875,-59.08203125,0.0,0
1586284898.2406561,2,3,-57.6171875,-15.625,-40.52734375,-37.59765625,0.0,0
1586284898.2445624,2,3,4.39453125,-16.11328125,-36.62109375,-9.27734375,0.0,0
1586284898.2484686,2,3,23.4375,-28.80859375,-26.85546875,-13.671875,0.0,0
1586284898.252375,2,3,-31.25,-30.76171875,-23.92578125,-32.71484375,0.0,0
1586284898.2562811,2,3,-73.2421875,-29.296875,-30.2734375,-46.875,0.0,0
1586284898.2601874,2,3,-49.31640625,-24.90234375,-30.2734375,-28.3203125,0.0,0
1586284898.2640936,2,3,15.625,-16.6015625,-33.203125,-0.9765625,0.0,0
1586284898.268,2,3,22.4609375,-17.578125,-41.50390625,-3.90625,0.0,0
1586284898.2719061,2,3,-28.3203125,-22.94921875,-30.76171875,-33.203125,0.0,0
1586284898.2758124,2,3,-75.1953125,-21.484375,-20.01953125,-54.19921875,0.0,0
1586284898.2797186,2,3,-53.7109375,-14.6484375,-24.4140625,-36.62109375,0.0,0
1586284898.283625,2,3,11.23046875,-13.671875,-20.99609375,-1.953125,0.0,0
1586284898.2875311,2,3,30.76171875,-27.34375,-27.83203125,12.20703125,0.0,0
1586284898.2914374,2,3,-7.8125,-34.66796875,-31.73828125,-10.7421875,0.0,0
1586284898.2953436,2,3,-49.31640625,-21.97265625,-35.15625,-42.48046875,0.0,0
1586284898.29925,2,3,-34.66796875,-19.53125,-47.36328125,-36.1328125,0.0,0
1586284898.3031561,2,3,24.4140625,-17.578125,-47.8515625,-2.9296875,0.0,0
1586284898.3070624,2,3,58.59375,-19.53125,-39.55078125,5.859375,0.0,0
1586284898.3109686,2,3,-0.48828125,-18.5546875,-32.71484375,-12.20703125,0.0,0
1586284898.314875,2,3,-70.3125,-16.11328125,-37.109375,-48.828125,0.0,0
1586284898.3187811,2,3,-64.94140625,-17.08984375,-37.109375,-43.9453125,0.0,0
1586284898.3226874,2,3,-11.23046875,-24.90234375,-25.390625,-0.9765625,0.0,0
1586284898.3265936,2,3,39.55078125,-27.34375,-11.23046875,8.7890625,0.0,0
1586284898.3305,2,3,9.27734375,-19.04296875,2.44140625,-0.9765625,0.0,0
1586284898.3344061,2,3,-54.19921875,-18.06640625,-12.20703125,-24.90234375,0.0,0
1586284898.3383124,2,3,-59.5703125,-13.671875,-37.59765625,-46.38671875,0.0,0
1586284898.3422186,2,3,-9.765625,-15.13671875,-32.71484375,-20.99609375,0.0,0
1586284898.346125,2,3,37.59765625,-18.5546875,-21.97265625,13.671875,0.0,0
1586284898.3500311,2,3,12.6953125,-25.87890625,-19.04296875,2.9296875,0.0,0
1586284898.3539374,2,3,-59.5703125,-23.92578125,-16.11328125,-36.62109375,0.0,0
1586284898.3578436,2,3,-64.94140625,-16.6015625,-26.3671875,-41.9921875,0.0,0
1586284898.36175,2,3,-13.18359375,-22.94921875,-41.015625,-10.7421875,0.0,0
1586284898.3656561,2,3,21.484375,-18.5546875,-27.34375,15.13671875,0.0,0
1586284898.3695624,2,3,3.41796875,-19.04296875,-15.13671875,15.625,0.0,0
1586284898.3734686,2,3,-48.33984375,-20.5078125,-19.53125,-12.6953125,0.0,0
1586284898.377375,2,3,-76.171875,-14.16015625,-23.92578125,-42.48046875,0.0,0
1586284898.3812811,2,3,-34.66796875,-14.6484375,-20.5078125,-22.94921875,0.0,0
1586284898.3851874,2,3,28.3203125,-22.94921875,-18.06640625,16.11328125,0.0,0
1586284898.3890936,2,3,14.16015625,-30.76171875,-29.78515625,4.8828125,0.0,0
1586284898.393,2,3,-52.24609375,-28.80859375,-31.25,-33.69140625,0.0,0
1586284898.3969061,2,3,-94.23828125,-30.2734375,-21.484375,-53.7109375,0.0,0
1586284898.4008124,2,3,-59.5703125,-31.73828125,-20.5078125,-29.78515625,0.0,0
1586284898.4047186,2,3,4.39453125,-31.25,-24.4140625,1.46484375,0.0,0
1586284898.408625,2,3,7.8125,-28.3203125,-26.85546875,-18.5546875,0.0,0
1586284898.4125311,2,3,-41.9921875,-24.90234375,-32.2265625,-51.7578125,0.0,0
1586284898.4164374,2,3,-89.84375,-30.76171875,-29.296875,-61.5234375,0.0,0
1586284898.4203436,2,3,-51.26953125,-33.203125,-28.3203125,-40.52734375,0.0,0
1586284898.42425,2,3,7.8125,-22.94921875,-32.2265625,-8.7890625,0.0,0
1586284898.4281561,2,3,6.8359375,-25.87890625,-20.5078125,-4.8828125,0.0,0
1586284898.4320624,2,3,-36.1328125,-27.34375,-15.625,-28.3203125,0.0,0
1586284898.4359686,2,3,-92.7734375,-22.4609375,-30.2734375,-51.26953125,0.0,0
1586284898.439875,2,3,-67.3828125,-23.92578125,-20.01953125,-32.2265625,0.0,0
1586284898.4437811,2,3,-7.8125,-22.4609375,-13.671875,0.48828125,0.0,0
1586284898.4476874,2,3,21.97265625,-22.4609375,-22.4609375,13.18359375,0.0,0
1586284898.4515936,2,3,-29.296875,-35.64453125,-26.85546875,-15.13671875,0.0,0
1586284898.4555,2,3,-83.0078125,-31.25,-31.73828125,-47.8515625,0.0,0
1586284898.4594061,2,3,-45.41015625,-20.99609375,-32.2265625,-30.76171875,0.0,0
1586284898.4633124,2,3,14.6484375,-20.99609375,-40.52734375,2.44140625,0.0,0
1586284898.4672186,2,3,40.52734375,-18.5546875,-39.0625,12.6953125,0.0,0
1586284898.471125,2,3,-5.859375,-19.53125,-21.484375,-15.625,0.0,0
1586284898.4750311,2,3,-61.03515625,-23.92578125,-14.16015625,-39.0625,0.0,0
1586284898.4789374,2,3,-54.6875,-23.4375,-21.484375,-39.55078125,0.0,0
1586284898.4828436,2,3,8.7890625,-21.97265625,-26.3671875,-4.39453125,0.0,0
1586284898.48675,2,3,41.9921875,-33.203125,-24.4140625,21.484375,0.0,0
1586284898.4906561,2,3,-0.9765625,-38.0859375,-20.99609375,4.39453125,0.0,0
1586284898.4945624,2,3,-50.29296875,-25.87890625,-28.3203125,-25.390625,0.0,0
1586284898.4984686,2,3,-46.38671875,-17.578125,-33.203125,-36.62109375,0.0,0
1586284898.502375,2,3,-3.41796875,-21.484375,-25.390625,-5.859375,0.0,0
1586284898.5062811,2,3,27.83203125,-23.4375,-30.76171875,13.18359375,0.0,0
1586284898.5101874,2,3,8.30078125,-20.01953125,-32.2265625,-6.8359375,0.0,0
1586284898.5140936,2,3,-39.55078125,-23.92578125,-27.83203125,-33.69140625,0.0,0
1586284898.518,2,3,-62.01171875,-29.296875,-29.78515625,-44.43359375,0.0,0
1586284898.5219061,2,3,-9.765625,-28.3203125,-27.83203125,-14.16015625,0.0,0
1586284898.5258124,2,3,44.43359375,-19.53125,-33.203125,29.78515625,0.0,0
1586284898.5297186,2,3,24.90234375,-21.97265625,-28.3203125,19.04296875,0.0,0
1586284898.533625,2,3,-29.296875,-29.78515625,-24.4140625,-31.25,0.0,0
1586284898.5375311,2,3,-55.17578125,-33.69140625,-35.64453125,-36.1328125,0.0,0
1586284898.5414374,2,3,-18.06640625,-30.2734375,-30.2734375,-5.859375,0.0,0
1586284898.5453436,2,3,44.921875,-22.94921875,-16.6015625,21.484375,0.0,0
1586284898.54925,2,3,35.64453125,-27.83203125,-14.6484375,19.53125,0.0,0
1586284898.5531561,2,3,-38.0859375,-25.87890625,-27.83203125,-23.92578125,0.0,0
1586284898.5570624,2,3,-72.265625,-33.203125,-41.9921875,-54.19921875,0.0,0
1586284898.5609686,2,3,-35.15625,-40.0390625,-43.45703125,-34.66796875,0.0,0
1586284898.564875,2,3,28.80859375,-24.4140625,-30.2734375,4.39453125,0.0,0
1586284898.5687811,2,3,34.66796875,-21.484375,-28.3203125,12.20703125,0.0,0
1586284898.5726874,2,3,-24.4140625,-24.90234375,-34.66796875,-20.01953125,0.0,0
1586284898.5765936,2,3,-66.89453125,-20.99609375,-32.2265625,-35.15625,0.0,0
1586284898.5805,2,3,-29.296875,-15.625,-31.73828125,-15.625,0.0,0
1586284898.5844061,2,3,27.83203125,-28.3203125,-39.55078125,10.7421875,0.0,0
1586284898.5883124,2,3,32.71484375,-41.015625,-39.0625,1.46484375,0.0,0
1586284898.5922186,2,3,-31.73828125,-29.78515625,-34.66796875,-22.94921875,0.0,0
1586284898.596125,2,3,-82.03125,-24.4140625,-39.0625,-40.0390625,0.0,0
1586284898.6000311,2,3,-28.80859375,-25.87890625,-38.0859375,-27.34375,0.0,0
1586284898.6039374,2,3,19.53125,-25.87890625,-30.76171875,-2.9296875,0.0,0
1586284898.6078436,2,3,20.99609375,-28.80859375,-26.85546875,-4.39453125,0.0,0
1586284898.61175,2,3,-18.06640625,-31.25,-20.01953125,-31.25,0.0,0
1586284898.6156561,2,3,-70.3125,-38.0859375,-32.2265625,-46.875,0.0,0
1586284898.6195624,2,3,-56.640625,-39.55078125,-43.9453125,-36.1328125,0.0,0
1586284898.6234686,2,3,18.06640625,-27.34375,-30.76171875,-4.8828125,0.0,0
1586284898.627375,2,3,38.0859375,-29.296875,-32.71484375,1.953125,0.0,0
1586284898.6312811,2,3,-13.18359375,-30.76171875,-36.1328125,-22.4609375,0.0,0
1586284898.6351874,2,3,-75.68359375,-27.34375,-31.25,-43.9453125,0.0,0
1586284898.6390936,2,3,-51.7578125,-21.484375,-29.78515625,-32.71484375,0.0,0
1586284898.643,2,3,7.8125,-15.625,-18.5546875,-4.39453125,0.0,0
1586284898.6469061,2,3,23.92578125,-10.25390625,-10.25390625,18.06640625,0.0,0
1586284898.6508124,2,3,-13.18359375,-16.11328125,-13.671875,-1.953125,0.0,0
1586284898.6547186,2,3,-69.82421875,-20.99609375,-11.71875,-44.921875,0.0,0
1586284898.658625,2,3,-61.5234375,-24.90234375,-13.671875,-40.52734375,0.0,0
1586284898.6625311,2,3,-7.8125,-38.0859375,-26.85546875,-11.71875,0.0,0
1586284898.6664374,2,3,28.80859375,-30.2734375,-25.390625,13.18359375,0.0,0
1586284898.6703436,2,3,4.8828125,-19.53125,-20.5078125,-9.27734375,0.0,0
1586284898.67425,2,3,-53.7109375,-21.97265625,-19.53125,-50.29296875,0.0,0
1586284898.6781561,2,3,-64.94140625,-21.97265625,-16.6015625,-45.8984375,0.0,0
1586284898.6820624,2,3,-6.8359375,-14.16015625,-20.01953125,-5.37109375,0.0,0
1586284898.6859686,2,3,44.43359375,-12.6953125,-27.83203125,29.296875,0.0,0
1586284898.689875,2,3,13.671875,-25.390625,-28.3203125,11.71875,0.0,0
1586284898.6937811,2,3,-51.7578125,-26.3671875,-13.671875,-26.85546875,0.0,0
1586284898.6976874,2,3,-68.84765625,-18.06640625,-4.39453125,-41.50390625,0.0,0
1586284898.7015936,2,3,-22.94921875,-19.04296875,-15.625,-15.13671875,0.0,0
1586284898.7055,2,3,31.25,-20.99609375,-22.4609375,10.25390625,0.0,0
1586284898.7094061,2,3,26.85546875,-16.6015625,-32.2265625,-7.8125,0.0,0
1586284898.7133124,2,3,-32.2265625,-12.20703125,-41.015625,-30.76171875,0.0,0
1586284898.7172186,2,3,-60.546875,-14.6484375,-23.92578125,-41.50390625,0.0,0
1586284898.721125,2,3,-9.765625,-11.23046875,-20.99609375,-14.16015625,0.0,0
1586284898.7250311,2,3,41.50390625,-15.13671875,-23.92578125,15.625,0.0,0
1586284898.7289374,2,3,22.4609375,-24.4140625,-13.18359375,3.90625,0.0,0
1586284898.7328436,2,3,-41.50390625,-25.390625,-14.16015625,-21.97265625,0.0,0
1586284898.73675,2,3,-80.078125,-25.87890625,-14.16015625,-40.0390625,0.0,0
1586284898.7406561,2,3,-37.109375,-27.34375,-6.34765625,-17.578125,0.0,0
1586284898.7445624,2,3,20.99609375,-27.83203125,-19.04296875,5.859375,0.0,0
1586284898.7484686,2,3,27.34375,-22.4609375,-37.109375,-6.34765625,0.0,0
1586284898.752375,2,3,-26.85546875,-18.5546875,-36.1328125,-34.66796875,0.0,0
1586284898.7562811,2,3,-91.30859375,-17.578125,-30.76171875,-46.38671875,0.0,0
1586284898.7601874,2,3,-41.9921875,-20.01953125,-23.92578125,-21.97265625,0.0,0
1586284898.7640936,2,3,38.0859375,-30.76171875,-23.92578125,6.34765625,0.0,0
1586284898.768,2,3,26.3671875,-34.1796875,-22.4609375,18.5546875,0.0,0
1586284898.7719061,2,3,-31.73828125,-40.0390625,-26.3671875,-8.30078125,0.0,0
1586284898.7758124,2,3,-70.3125,-52.24609375,-30.2734375,-33.69140625,0.0,0
1586284898.7797186,2,3,-56.15234375,-40.0390625,-37.109375,-25.87890625,0.0,0
1586284898.783625,2,3,-2.44140625,-22.94921875,-39.55078125,-8.7890625,0.0,0
1586284898.7875311,2,3,42.48046875,-20.99609375,-32.71484375,5.859375,0.0,0
1586284898.7914374,2,3,-16.11328125,-27.83203125,-26.3671875,-16.11328125,0.0,0
1586284898.7953436,2,3,-84.9609375,-28.80859375,-22.94921875,-41.9921875,0.0,0
1586284898.79925,2,3,-66.89453125,-29.78515625,-33.203125,-47.36328125,0.0,0
1586284898.8031561,2,3,2.44140625,-29.78515625,-30.76171875,-23.92578125,0.0,0
1586284898.8070624,2,3,34.66796875,-32.2265625,-32.2265625,17.08984375,0.0,0
1586284898.8109686,2,3,-22.94921875,-30.2734375,-32.2265625,14.6484375,0.0,0
1586284898.814875,2,3,-58.59375,-14.16015625,-14.16015625,-20.99609375,0.0,0
1586284898.8187811,2,3,-40.52734375,-12.20703125,-17.08984375,-24.90234375,0.0,0
1586284898.8226874,2,3,-6.34765625,-30.76171875,-27.83203125,-1.46484375,0.0,0
1586284898.8265936,2,3,22.4609375,-33.69140625,-25.87890625,19.04296875,0.0,0
1586284898.8305,2,3,-2.44140625,-32.2265625,-27.83203125,-3.90625,0.0,0
1586284898.8344061,2,3,-62.98828125,-28.3203125,-32.2265625,-45.41015625,0.0,0
1586284898.8383124,2,3,-75.68359375,-26.3671875,-33.69140625,-45.41015625,0.0,0
1586284898.8422186,2,3,-11.71875,-26.3671875,-45.41015625,-20.5078125,0.0,0
1586284898.846125,2,3,38.57421875,-24.90234375,-46.875,-2.44140625,0.0,0
1586284898.8500311,2,3,11.71875,-34.1796875,-30.2734375,-16.6015625,0.0,0
1586284898.8539374,2,3,-38.57421875,-26.3671875,-17.08984375,-50.78125,0.0,0
1586284898.8578436,2,3,-62.01171875,-22.94921875,-16.6015625,-49.8046875,0.0,0
1586284898.86175,2,3,-27.34375,-21.97265625,-28.3203125,-11.71875,0.0,0
1586284898.8656561,2,3,22.4609375,-16.6015625,-24.4140625,7.8125,0.0,0
1586284898.8695624,2,3,2.9296875,-21.484375,-22.4609375,-7.32421875,0.0,0
1586284898.8734686,2,3,-54.6875,-23.4375,-30.76171875,-32.71484375,0.0,0
1586284898.877375,2,3,-68.84765625,-24.4140625,-28.3203125,-42.96875,0.0,0
1586284898.8812811,2,3,-13.18359375,-35.64453125,-23.4375,-26.3671875,0.0,0
1586284898.8851874,2,3,51.26953125,-24.90234375,-33.69140625,7.32421875,0.0,0
1586284898.8890936,2,3,39.55078125,-12.6953125,-45.41015625,13.18359375,0.0,0
1586284898.893,2,3,-43.9453125,-18.5546875,-38.57421875,-38.57421875,0.0,0
1586284898.8969061,2,3,-78.61328125,-24.4140625,-34.66796875,-59.08203125,0.0,0
1586284898.9008124,2,3,-35.64453125,-24.90234375,-31.73828125,-28.80859375,0.0,0
1586284898.9047186,2,3,29.296875,-26.85546875,-25.390625,1.953125,0.0,0
1586284898.908625,2,3,39.55078125,-25.87890625,-26.3671875,0.9765625,0.0,0
1586284898.9125311,2,3,-27.34375,-22.4609375,-40.0390625,-21.484375,0.0,0
1586284898.9164374,2,3,-64.94140625,-17.578125,-50.29296875,-41.015625,0.0,0
1586284898.9203436,2,3,-32.2265625,-14.6484375,-38.0859375,-24.90234375,0.0,0
1586284898.92425,2,3,30.2734375,-30.76171875,-32.2265625,12.20703125,0.0,0
1586284898.9281561,2,3,40.0390625,-33.69140625,-24.90234375,19.04296875,0.0,0
1586284898.9320624,2,3,-18.06640625,-19.04296875,-13.671875,-17.08984375,0.0,0
1586284898.9359686,2,3,-55.6640625,-17.08984375,-29.296875,-53.22265625,0.0,0
1586284898.939875,3,3,-23.4375,-20.01953125,-45.41015625,-40.52734375,0.0,0
1586284898.9437811,3,3,-1.953125,-25.87890625,-36.1328125,-7.8125,0.0,0
1586284898.9476874,3,3,13.18359375,-29.296875,-20.99609375,3.41796875,0.0,0
1586284898.9515936,3,3,-1.953125,-30.76171875,-22.94921875,-15.625,0.0,0
1586284898.9555,3,3,-53.7109375,-29.296875,-23.92578125,-33.203125,0.0,0
1586284898.9594061,3,3,-35.15625,-30.76171875,-25.87890625,-25.390625,0.0,0
1586284898.9633124,3,3,31.73828125,-26.85546875,-35.15625,1.953125,0.0,0
1586284898.9672186,3,3,51.26953125,-19.04296875,-29.296875,15.13671875,0.0,0
1586284898.971125,3,3,7.32421875,-15.13671875,-23.92578125,-13.671875,0.0,0
1586284898.9750311,3,3,-45.8984375,-16.6015625,-35.64453125,-43.45703125,0.0,0
1586284898.9789374,3,3,-47.8515625,-27.34375,-40.0390625,-41.015625,0.0,0
1586284898.9828436,3,3,8.30078125,-34.1796875,-24.90234375,-14.6484375,0.0,0
1586284898.98675,3,3,44.921875,-28.3203125,-26.85546875,-2.44140625,0.0,0
1586284898.9906561,3,3,7.8125,-32.71484375,-32.71484375,-13.671875,0.0,0
1586284898.9945624,3,3,-39.55078125,-30.2734375,-36.1328125,-38.0859375,0.0,0
1586284898.9984686,3,3,-44.43359375,-15.625,-43.45703125,-27.34375,0.0,0
1586284899.002375,3,3,-2.9296875,-22.4609375,-40.0390625,-6.8359375,0.0,0
1586284899.0062811,3,3,36.62109375,-26.3671875,-36.62109375,6.8359375,0.0,0
1586284899.0101874,3,3,15.625,-21.97265625,-29.78515625,3.90625,0.0,0
1586284899.0140936,3,3,-40.0390625,-20.01953125,-29.78515625,-33.203125,0.0,0
1586284899.018,3,3,-51.26953125,-21.97265625,-27.83203125,-37.59765625,0.0,0
1586284899.0219061,3,3,-3.41796875,-29.296875,-24.4140625,-6.34765625,0.0,0
1586284899.0258124,3,3,37.59765625,-29.78515625,-28.3203125,17.578125,0.0,0
1586284899.0297186,3,3,21.97265625,-21.97265625,-16.6015625,3.41796875,0.0,0
1586284899.033625,3,3,-48.828125,-20.5078125,-12.20703125,-20.99609375,0.0,0
1586284899.0375311,3,3,-63.4765625,-27.34375,-14.16015625,-32.2265625,0.0,0
1586284899.0414374,3,3,-7.8125,-29.78515625,-11.23046875,-19.53125,0.0,0
1586284899.0453436,3,3,37.109375,-31.25,-15.13671875,18.06640625,0.0,0
1586284899.04925,3,3,25.87890625,-25.87890625,-30.2734375,5.37109375,0.0,0
1586284899.0531561,3,3,-45.41015625,-28.3203125,-32.2265625,-38.57421875,0.0,0
1586284899.0570624,3,3,-74.70703125,-32.2265625,-27.34375,-46.875,0.0,0
1586284899.0609686,3,3,-32.71484375,-30.2734375,-24.90234375,-25.390625,0.0,0
1586284899.064875,3,3,17.08984375,-30.2734375,-28.3203125,8.7890625,0.0,0
1586284899.0687811,3,3,23.92578125,-21.97265625,-23.92578125,5.37109375,0.0,0
1586284899.0726874,3,3,-32.2265625,-23.4375,-20.99609375,-29.78515625,0.0,0
1586284899.0765936,3,3,-67.87109375,-31.25,-21.484375,-42.96875,0.0,0
1586284899.0805,3,3,-34.66796875,-25.390625,-26.85546875,-28.80859375,0.0,0
1586284899.0844061,3,3,30.76171875,-20.01953125,-34.1796875,-8.7890625,0.0,0
1586284899.0883124,3,3,38.57421875,-22.4609375,-27.83203125,-3.41796875,0.0,0
1586284899.0922186,3,3,-24.90234375,-21.97265625,-25.390625,-28.3203125,0.0,0
1586284899.096125,3,3,-65.4296875,-22.4609375,-33.69140625,-58.59375,0.0,0
1586284899.1000311,3,3,-45.41015625,-23.92578125,-35.15625,-30.2734375,0.0,0
1586284899.1039374,3,3,13.18359375,-20.99609375,-27.34375,4.39453125,0.0,0
1586284899.1078436,3,3,19.04296875,-21.484375,-31.25,1.953125,0.0,0
1586284899.11175,3,3,-36.62109375,-27.34375,-31.25,-20.5078125,0.0,0
1586284899.1156561,3,3,-68.84765625,-27.83203125,-24.90234375,-49.8046875,0.0,0
1586284899.1195624,3,3,-42.48046875,-20.99609375,-23.92578125,-31.25,0.0,0
1586284899.1234686,3,3,8.30078125,-20.01953125,-26.85546875,-0.9765625,0.0,0
1586284899.127375,3,3,38.0859375,-24.90234375,-16.11328125,11.71875,0.0,0
1586284899.1312811,3,3,-8.30078125,-28.3203125,-16.11328125,-11.23046875,0.0,0
1586284899.1351874,3,3,-70.3125,-37.59765625,-29.78515625,-48.828125,0.0,0
1586284899.1390936,3,3,-50.78125,-32.71484375,-29.78515625,-47.36328125,0.0,0
1586284899.143,3,3,-0.9765625,-20.99609375,-22.4609375,-9.27734375,0.0,0
1586284899.1469061,3,3,14.6484375,-16.11328125,-24.4140625,0.0,0.0,0
1586284899.1508124,3,3,-20.01953125,-22.94921875,-25.390625,-27.34375,0.0,0
1586284899.1547186,3,3,-69.3359375,-30.2734375,-26.3671875,-56.15234375,0.0,0
1586284899.158625,3,3,-74.21875,-30.2734375,-31.25,-59.5703125,0.0,0
1586284899.1625311,3,3,-12.20703125,-29.296875,-29.296875,-12.20703125,0.0,0
1586284899.1664374,3,3,38.0859375,-23.4375,-24.90234375,18.06640625,0.0,0
1586284899.1703436,3,3,15.625,-20.01953125,-24.4140625,-4.8828125,0.0,0
1586284899.17425,3,3,-51.7578125,-24.90234375,-20.99609375,-41.50390625,0.0,0
1586284899.1781561,3,3,-63.4765625,-27.83203125,-25.390625,-45.8984375,0.0,0
1586284899.1820624,3,3,-7.32421875,-26.3671875,-27.34375,-13.671875,0.0,0
1586284899.1859686,3,3,36.62109375,-21.484375,-16.6015625,8.30078125,0.0,0
1586284899.189875,3,3,13.18359375,-21.484375,-26.3671875,-2.9296875,0.0,0
1586284899.1937811,3,3,-56.640625,-29.296875,-34.66796875,-40.52734375,0.0,0
1586284899.1976874,3,3,-60.05859375,-35.15625,-22.94921875,-39.55078125,0.0,0
1586284899.2015936,3,3,-0.48828125,-31.25,-21.97265625,-11.23046875,0.0,0
1586284899.2055,3,3,17.578125,-25.390625,-17.578125,0.9765625,0.0,0
1586284899.2094061,3,3,-1.46484375,-17.578125,-18.5546875,-15.13671875,0.0,0
1586284899.2133124,3,3,-51.7578125,-20.01953125,-25.390625,-38.57421875,0.0,0
1586284899.2172186,3,3,-85.9375,-30.76171875,-30.76171875,-51.26953125,0.0,0
1586284899.221125,3,3,-37.109375,-33.69140625,-35.15625,-28.80859375,0.0,0
1586284899.2250311,3,3,27.34375,-33.203125,-26.85546875,4.39453125,0.0,0
1586284899.2289374,3,3,32.71484375,-32.71484375,-27.83203125,-0.9765625,0.0,0
1586284899.2328436,3,3,-34.66796875,-34.1796875,-38.57421875,-38.0859375,0.0,0
1586284899.23675,3,3,-80.078125,-27.83203125,-44.921875,-48.828125,0.0,0
1586284899.2406561,3,3,-39.55078125,-21.484375,-33.69140625,-27.34375,0.0,0
1586284899.2445624,3,3,13.18359375,-24.4140625,-31.25,-2.44140625,0.0,0
1586284899.2484686,3,3,12.6953125,-22.94921875,-39.0625,4.39453125,0.0,0
1586284899.252375,3,3,-43.9453125,-27.83203125,-36.62109375,-32.2265625,0.0,0
1586284899.2562811,3,3,-84.9609375,-24.90234375,-31.73828125,-61.5234375,0.0,0
1586284899.2601874,3,3,-53.22265625,-14.16015625,-35.64453125,-35.64453125,0.0,0
1586284899.2640936,3,3,13.671875,-9.765625,-36.62109375,13.18359375,0.0,0
1586284899.268,3,3,19.04296875,-19.04296875,-37.59765625,1.46484375,0.0,0
1586284899.2719061,3,3,-36.1328125,-45.41015625,-39.0625,-41.9921875,0.0,0
1586284899.2758124,3,3,-75.1953125,-41.9921875,-26.3671875,-54.6875,0.0,0
1586284899.2797186,3,3,-63.96484375,-32.2265625,-25.390625,-41.50390625,0.0,0
1586284899.283625,3,3,1.953125,-23.92578125,-35.15625,0.9765625,0.0,0
1586284899.2875311,3,3,34.66796875,-18.5546875,-46.38671875,23.92578125,0.0,0
1586284899.2914374,3,3,-10.7421875,-17.578125,-51.26953125,-0.9765625,0.0,0
1586284899.2953436,3,3,-50.78125,-23.4375,-42.96875,-37.59765625,0.0,0
1586284899.29925,3,3,-29.78515625,-24.90234375,-28.3203125,-35.15625,0.0,0
1586284899.3031561,3,3,24.90234375,-18.06640625,-17.578125,16.11328125,0.0,0
1586284899.3070624,3,3,43.45703125,-23.92578125,-14.16015625,22.94921875,0.0,0
1586284899.3109686,3,3,-1.46484375,-24.4140625,-20.5078125,-11.71875,0.0,0
1586284899.314875,3,3,-61.5234375,-21.97265625,-26.3671875,-33.203125,0.0,0
1586284899.3187811,3,3,-65.4296875,-29.78515625,-33.203125,-33.69140625,0.0,0
1586284899.3226874,3,3,-7.32421875,-30.2734375,-39.0625,-12.20703125,0.0,0
1586284899.3265936,3,3,32.2265625,-21.97265625,-31.25,-4.8828125,0.0,0
1586284899.3305,3,3,3.41796875,-24.4140625,-23.92578125,-19.04296875,0.0,0
1586284899.3344061,3,3,-51.26953125,-29.296875,-18.5546875,-33.69140625,0.0,0
1586284899.3383124,3,3,-60.546875,-23.4375,-30.76171875,-40.52734375,0.0,0
1586284899.3422186,3,3,-7.32421875,-17.578125,-42.96875,-15.13671875,0.0,0
1586284899.346125,3,3,40.0390625,-20.01953125,-52.734375,5.859375,0.0,0
1586284899.3500311,3,3,4.39453125,-22.94921875,-55.17578125,-15.13671875,0.0,0
1586284899.3539374,3,3,-63.4765625,-24.4140625,-34.1796875,-41.015625,0.0,0
1586284899.3578436,3,3,-82.03125,-27.83203125,-17.578125,-49.8046875,0.0,0
1586284899.36175,3,3,-20.99609375,-34.1796875,-22.4609375,-15.13671875,0.0,0
1586284899.3656561,3,3,42.96875,-29.296875,-31.25,17.578125,0.0,0
1586284899.3695624,3,3,16.11328125,-22.4609375,-33.69140625,0.48828125,0.0,0
1586284899.3734686,3,3,-55.17578125,-27.83203125,-35.15625,-54.19921875,0.0,0
1586284899.377375,3,3,-65.91796875,-29.78515625,-41.015625,-62.5,0.0,0
1586284899.3812811,3,3,-10.7421875,-28.3203125,-43.9453125,-19.53125,0.0,0
1586284899.3851874,3,3,36.62109375,-23.92578125,-39.0625,1.953125,0.0,0
1586284899.3890936,3,3,14.6484375,-21.97265625,-21.97265625,-13.18359375,0.0,0
1586284899.393,3,3,-59.08203125,-29.78515625,-20.01953125,-48.828125,0.0,0
1586284899.3969061,3,3,-67.3828125,-38.0859375,-36.62109375,-63.4765625,0.0,0
1586284899.4008124,3,3,-11.23046875,-32.2265625,-35.15625,-14.16015625,0.0,0
1586284899.4047186,3,3,31.25,-28.3203125,-32.71484375,23.92578125,0.0,0
1586284899.408625,3,3,32.2265625,-31.25,-38.57421875,19.04296875,0.0,0
1586284899.4125311,3,3,-20.01953125,-31.25,-40.0390625,-28.80859375,0.0,0
1586284899.4164374,3,3,-58.59375,-28.80859375,-30.76171875,-46.38671875,0.0,0
1586284899.4203436,3,3,-22.94921875,-25.390625,-27.83203125,-4.39453125,0.0,0
1586284899.42425,3,3,20.5078125,-30.76171875,-32.2265625,18.5546875,0.0,0
1586284899.4281561,3,3,21.97265625,-35.15625,-33.203125,13.18359375,0.0,0
1586284899.4320624,3,3,-22.4609375,-35.15625,-30.2734375,-14.6484375,0.0,0
1586284899.4359686,3,3,-70.3125,-35.64453125,-40.0390625,-38.0859375,0.0,0
1586284899.439875,3,3,-48.828125,-35.64453125,-57.12890625,-23.4375,0.0,0
1586284899.4437811,3,3,18.06640625,-29.78515625,-56.640625,9.27734375,0.0,0
1586284899.4476874,3,3,42.96875,-20.5078125,-41.9921875,22.4609375,0.0,0
1586284899.4515936,3,3,-4.39453125,-16.11328125,-38.0859375,-6.34765625,0.0,0
1586284899.4555,3,3,-57.6171875,-16.11328125,-38.0859375,-39.0625,0.0,0
1586284899.4594061,3,3,-42.48046875,-20.99609375,-38.57421875,-31.25,0.0,0
1586284899.4633124,3,3,16.6015625,-32.71484375,-39.0625,-3.41796875,0.0,0
1586284899.4672186,3,3,46.38671875,-27.83203125,-30.2734375,22.94921875,0.0,0
1586284899.471125,3,3,-5.859375,-24.4140625,-34.1796875,-4.39453125,0.0,0
1586284899.4750311,3,3,-75.1953125,-27.34375,-43.9453125,-42.48046875,0.0,0
1586284899.4789374,3,3,-59.08203125,-28.3203125,-45.41015625,-41.50390625,0.0,0
1586284899.4828436,3,3,1.46484375,-31.25,-36.62109375,-5.37109375,0.0,0
1586284899.48675,3,3,33.69140625,-29.78515625,-28.3203125,20.01953125,0.0,0
1586284899.4906561,3,3,-7.8125,-23.4375,-29.296875,-17.08984375,0.0,0
1586284899.4945624,3,3,-74.21875,-34.66796875,-38.0859375,-63.96484375,0.0,0
1586284899.4984686,3,3,-71.2890625,-42.48046875,-41.50390625,-50.29296875,0.0,0
1586284899.502375,3,3,-15.625,-28.80859375,-45.8984375,-14.16015625,0.0,0
1586284899.5062811,3,3,22.94921875,-23.92578125,-41.50390625,4.39453125,0.0,0
1586284899.5101874,3,3,-7.8125,-29.78515625,-27.34375,-0.48828125,0.0,0
1586284899.5140936,3,3,-63.96484375,-33.203125,-25.87890625,-34.66796875,0.0,0
1586284899.518,3,3,-74.70703125,-36.62109375,-34.1796875,-47.36328125,0.0,0
1586284899.5219061,3,3,-10.7421875,-35.64453125,-29.78515625,-6.34765625,0.0,0
1586284899.5258124,3,3,38.57421875,-37.59765625,-23.92578125,20.5078125,0.0,0
1586284899.5297186,3,3,22.4609375,-35.15625,-36.62109375,4.8828125,0.0,0
1586284899.533625,3,3,-40.52734375,-28.3203125,-41.9921875,-35.64453125,0.0,0
1586284899.5375311,3,3,-90.33203125,-30.2734375,-37.59765625,-55.6640625,0.0,0
1586284899.5414374,3,3,-38.57421875,-29.296875,-33.69140625,-11.71875,0.0,0
1586284899.5453436,3,3,33.203125,-26.85546875,-29.78515625,17.08984375,0.0,0
1586284899.54925,3,3,14.6484375,-24.90234375,-25.87890625,-7.32421875,0.0,0
1586284899.5531561,3,3,-48.33984375,-22.94921875,-35.15625,-42.96875,0.0,0
1586284899.5570624,3,3,-81.0546875,-20.5078125,-35.64453125,-42.48046875,0.0,0
1586284899.5609686,3,3,-35.64453125,-24.90234375,-41.015625,-6.8359375,0.0,0
1586284899.564875,3,3,24.4140625,-34.1796875,-41.50390625,12.6953125,0.0,0
1586284899.5687811,3,3,22.94921875,-40.0390625,-16.6015625,18.5546875,0.0,0
1586284899.5726874,3,3,-33.203125,-37.109375,-15.625,-3.41796875,0.0,0
1586284899.5765936,3,3,-72.75390625,-32.71484375,-22.4609375,-38.0859375,0.0,0
1586284899.5805,3,3,-46.875,-24.4140625,-14.6484375,-20.5078125,0.0,0
1586284899.5844061,3,3,15.625,-20.99609375,-14.6484375,9.27734375,0.0,0
1586284899.5883124,3,3,20.99609375,-27.83203125,-25.87890625,13.671875,0.0,0
1586284899.5922186,3,3,-43.9453125,-25.87890625,-30.2734375,-16.6015625,0.0,0
1586284899.596125,3,3,-78.125,-21.97265625,-31.25,-57.6171875,0.0,0
1586284899.6000311,3,3,-45.41015625,-30.2734375,-30.2734375,-48.828125,0.0,0
1586284899.6039374,3,3,2.9296875,-40.0390625,-33.69140625,-10.7421875,0.0,0
1586284899.6078436,3,3,21.97265625,-33.69140625,-42.96875,4.8828125,0.0,0
1586284899.61175,3,3,-20.01953125,-22.4609375,-32.2265625,-21.484375,0.0,0
1586284899.6156561,3,3,-83.984375,-21.484375,-29.296875,-56.15234375,0.0,0
1586284899.6195624,3,3,-58.10546875,-24.4140625,-35.64453125,-41.50390625,0.0,0
1586284899.6234686,3,3,10.25390625,-23.92578125,-37.59765625,0.9765625,0.0,0
1586284899.627375,3,3,24.90234375,-23.92578125,-34.66796875,12.20703125,0.0,0
1586284899.6312811,3,3,-1.953125,-32.2265625,-27.34375,-9.765625,0.0,0
1586284899.6351874,3,3,-54.19921875,-31.73828125,-29.296875,-38.0859375,0.0,0
1586284899.6390936,3,3,-49.8046875,-22.4609375,-26.3671875,-33.203125,0.0,0
1586284899.643,3,3,8.30078125,-23.4375,-32.2265625,-8.7890625,0.0,0
1586284899.6469061,3,3,35.64453125,-22.4609375,-32.2265625,6.34765625,0.0,0
1586284899.6508124,3,3,-1.953125,-23.92578125,-24.90234375,-16.6015625,0.0,0
1586284899.6547186,3,3,-61.5234375,-31.25,-26.85546875,-45.8984375,0.0,0
1586284899.658625,3,3,-69.3359375,-36.1328125,-28.80859375,-41.9921875,0.0,0
1586284899.6625311,3,3,-7.32421875,-34.66796875,-27.34375,-15.625,0.0,0
1586284899.6664374,3,3,39.0625,-30.2734375,-37.109375,11.23046875,0.0,0
1586284899.6703436,3,3,-5.859375,-24.90234375,-37.59765625,-9.765625,0.0,0
1586284899.67425,3,3,-59.08203125,-39.0625,-30.76171875,-34.66796875,0.0,0
1586284899.6781561,3,3,-60.05859375,-51.7578125,-28.80859375,-30.76171875,0.0,0
1586284899.6820624,3,3,1.46484375,-32.71484375,-31.73828125,-6.8359375,0.0,0
1586284899.6859686,3,3,50.29296875,-18.5546875,-31.73828125,19.53125,0.0,0
1586284899.689875,3,3,15.13671875,-21.484375,-27.34375,2.9296875,0.0,0
1586284899.6937811,3,3,-57.6171875,-21.484375,-20.99609375,-39.0625,0.0,0
1586284899.6976874,3,3,-80.078125,-17.08984375,-26.85546875,-45.41015625,0.0,0
1586284899.7015936,3,3,-26.3671875,-22.4609375,-32.2265625,-28.80859375,0.0,0
1586284899.7055,3,3,36.1328125,-27.34375,-27.34375,-6.34765625,0.0,0
1586284899.7094061,3,3,-1.46484375,-23.92578125,-21.484375,-7.32421875,0.0,0
1586284899.7133124,3,3,-72.265625,-18.06640625,-21.97265625,-51.26953125,0.0,0
1586284899.7172186,3,3,-81.54296875,-20.5078125,-22.4609375,-75.1953125,0.0,0
1586284899.721125,3,3,-39.55078125,-22.4609375,-23.4375,-41.50390625,0.0,0
1586284899.7250311,3,3,5.37109375,-20.5078125,-27.34375,-6.34765625,0.0,0
1586284899.7289374,3,3,-10.25390625,-21.484375,-26.3671875,-21.484375,0.0,0
1586284899.7328436,3,3,-70.3125,-24.4140625,-22.4609375,-55.17578125,0.0,0
1586284899.73675,3,3,-99.12109375,-21.97265625,-16.11328125,-69.3359375,0.0,0
1586284899.7406561,3,3,-57.12890625,-23.4375,-13.671875,-69.3359375,0.0,0
1586284899.7445624,3,3,-16.11328125,-17.08984375,-10.25390625,-46.38671875,0.0,0
1586284899.7484686,3,3,-26.3671875,-9.765625,-5.859375,-25.87890625,0.0,0
1586284899.752375,3,3,-93.26171875,-14.6484375,-12.6953125,-68.84765625,0.0,0
1586284899.7562811,3,3,-140.625,-10.25390625,-11.23046875,-101.07421875,0.0,0
1586284899.7601874,3,3,-129.8828125,-6.34765625,-14.6484375,-86.42578125,0.0,0
1586284899.7640936,3,3,-58.10546875,-6.34765625,-15.13671875,-61.5234375,0.0,0
1586284899.768,3,3,-35.64453125,-3.90625,-6.8359375,-39.0625,0.0,0
1586284899.7719061,3,3,-91.796875,3.41796875,-20.5078125,-79.58984375,0.0,0
1586284899.7758124,3,3,-133.30078125,9.765625,-18.5546875,-124.51171875,0.0,0
1586284899.7797186,3,3,-117.1875,1.953125,3.41796875,-107.421875,0.0,0
1586284899.783625,3,3,-59.08203125,-10.25390625,3.41796875,-71.2890625,0.0,0
1586284899.7875311,3,3,-41.015625,-4.39453125,-15.13671875,-60.546875,0.0,0
1586284899.7914374,3,3,-85.44921875,-7.8125,-24.4140625,-96.19140625,0.0,0
1586284899.7953436,3,3,-115.234375,-6.34765625,-21.97265625,-101.5625,0.0,0
1586284899.79925,3,3,-87.40234375,-1.953125,-22.4609375,-90.8203125,0.0,0
1586284899.8031561,3,3,-31.25,-9.27734375,-29.296875,-66.89453125,0.0,0
1586284899.8070624,3,3,-28.3203125,-4.39453125,-27.34375,-32.71484375,0.0,0
1586284899.8109686,3,3,-59.5703125,-8.30078125,-25.390625,-45.8984375,0.0,0
1586284899.814875,3,3,-98.14453125,-19.04296875,-25.390625,-79.1015625,0.0,0
1586284899.8187811,3,3,-99.12109375,-18.06640625,-32.71484375,-70.80078125,0.0,0
1586284899.8226874,3,3,-29.296875,-15.625,-29.296875,-27.83203125,0.0,0
1586284899.8265936,3,3,6.8359375,-30.2734375,-22.94921875,-7.32421875,0.0,0
1586284899.8305,3,3,-20.5078125,-30.2734375,-18.06640625,-12.6953125,0.0,0
1586284899.8344061,3,3,-65.91796875,-20.01953125,-8.7890625,-41.9921875,0.0,0
1586284899.8383124,3,3,-66.89453125,-26.3671875,-16.6015625,-48.33984375,0.0,0
1586284899.8422186,3,3,-15.625,-30.76171875,-20.01953125,-18.06640625,0.0,0
1586284899.846125,3,3,20.99609375,-25.87890625,-18.5546875,10.25390625,0.0,0
1586284899.8500311,3,3,1.953125,-28.3203125,-24.4140625,3.90625,0.0,0
1586284899.8539374,3,3,-60.05859375,-40.0390625,-28.3203125,-43.9453125,0.0,0
1586284899.8578436,3,3,-78.125,-41.50390625,-37.109375,-46.38671875,0.0,0
1586284899.86175,3,3,-17.08984375,-35.64453125,-42.96875,-20.99609375,0.0,0
1586284899.8656561,3,3,38.57421875,-23.4375,-34.66796875,0.0,0.0,0
1586284899.8695624,3,3,28.3203125,-14.6484375,-31.25,1.953125,0.0,0
1586284899.8734686,3,3,-51.7578125,-21.97265625,-31.73828125,-29.78515625,0.0,0
1586284899.877375,3,3,-78.61328125,-32.2265625,-38.57421875,-50.29296875,0.0,0
1586284899.8812811,3,3,-1.46484375,-35.15625,-32.2265625,-15.625,0.0,0
1586284899.8851874,3,3,65.91796875,-32.71484375,-21.97265625,23.4375,0.0,0
1586284899.8890936,3,3,56.640625,-34.1796875,-24.90234375,24.4140625,0.0,0
1586284899.893,3,3,-21.97265625,-36.62109375,-29.296875,-5.859375,0.0,0
1586284899.8969061,3,3,-61.5234375,-33.69140625,-31.25,-18.06640625,0.0,0
1586284899.9008124,3,3,-15.13671875,-25.390625,-26.3671875,10.25390625,0.0,0
1586284899.9047186,3,3,53.7109375,-28.3203125,-30.2734375,26.85546875,0.0,0
1586284899.908625,3,3,51.7578125,-33.69140625,-39.55078125,27.34375,0.0,0
1586284899.9125311,3,3,-20.5078125,-26.85546875,-31.73828125,7.8125,0.0,0
1586284899.9164374,3,3,-56.15234375,-30.2734375,-38.0859375,-9.765625,0.0,0
1586284899.9203436,3,3,-18.06640625,-44.921875,-39.55078125,3.90625,0.0,0
1586284899.92425,3,3,33.69140625,-41.015625,-25.390625,37.109375,0.0,0
1586284899.9281561,3,3,38.0859375,-33.203125,-23.92578125,42.48046875,0.0,0
1586284899.9320624,3,3,3.90625,-37.59765625,-21.484375,9.765625,0.0,0
1586284899.9359686,3,3,-47.36328125,-41.50390625,-22.94921875,-21.97265625,0.0,0
1586284899.939875,3,3,-32.71484375,-38.0859375,-26.3671875,-9.765625,0.0,0
1586284899.9437811,3,3,36.62109375,-33.69140625,-25.87890625,20.5078125,0.0,0
1586284899.9476874,3,3,42.96875,-39.0625,-30.2734375,23.4375,0.0,0
1586284899.9515936,3,3,-5.859375,-29.296875,-38.57421875,12.20703125,0.0,0
1586284899.9555,3,3,-45.8984375,-16.11328125,-47.36328125,-17.08984375,0.0,0
1586284899.9594061,3,3,-29.296875,-27.34375,-55.6640625,-17.578125,0.0,0
1586284899.9633124,3,3,27.34375,-32.71484375,-50.78125,18.5546875,0.0,0
1586284899.9672186,3,3,61.03515625,-34.1796875,-52.24609375,26.3671875,0.0,0
1586284899.971125,3,3,9.27734375,-41.015625,-43.9453125,14.6484375,0.0,0
1586284899.9750311,3,3,-44.921875,-38.57421875,-36.62109375,-9.27734375,0.0,0
1586284899.9789374,3,3,-26.85546875,-26.85546875,-47.36328125,-20.01953125,0.0,0
1586284899.9828436,3,3,24.4140625,-22.94921875,-47.8515625,9.27734375,0.0,0
1586284899.98675,3,3,53.7109375,-23.92578125,-28.3203125,24.90234375,0.0,0
1586284899.9906561,3,3,11.23046875,-26.3671875,-18.5546875,-1.46484375,0.0,0
1586284899.9945624,3,3,-52.734375,-34.1796875,-26.85546875,-25.390625,0.0,0
1586284899.9984686,3,3,-47.36328125,-36.62109375,-33.203125,-29.78515625,0.0,0
1586284900.002375,3,3,23.4375,-29.296875,-29.296875,-1.46484375,0.0,0
1586284900.0062811,3,3,70.3125,-23.4375,-21.97265625,32.2265625,0.0,0
1586284900.0101874,3,3,27.83203125,-19.53125,-23.92578125,19.04296875,0.0,0
1586284900.0140936,3,3,-41.50390625,-22.94921875,-33.69140625,-24.90234375,0.0,0
1586284900.018,3,3,-34.1796875,-26.85546875,-32.2265625,-33.69140625,0.0,0
1586284900.0219061,3,3,32.2265625,-19.04296875,-22.4609375,3.41796875,0.0,0
1586284900.0258124,3,3,67.87109375,-12.6953125,-17.08984375,25.390625,0.0,0
1586284900.0297186,3,3,25.87890625,-21.97265625,-18.5546875,15.625,0.0,0
1586284900.033625,3,3,-55.6640625,-35.15625,-23.4375,-25.87890625,0.0,0
1586284900.0375311,3,3,-50.29296875,-44.43359375,-28.3203125,-47.8515625,0.0,0
1586284900.0414374,3,3,30.76171875,-44.43359375,-32.71484375,-18.5546875,0.0,0
1586284900.0453436,3,3,83.49609375,-34.1796875,-29.78515625,19.53125,0.0,0
1586284900.04925,3,3,37.109375,-31.73828125,-28.3203125,6.8359375,0.0,0
1586284900.0531561,3,3,-28.80859375,-31.73828125,-29.296875,-31.25,0.0,0
1586284900.0570624,3,3,-49.8046875,-20.5078125,-13.671875,-44.921875,0.0,0
1586284900.0609686,3,3,-10.7421875,-16.11328125,-15.625,-25.390625,0.0,0
1586284900.064875,3,3,47.8515625,-25.390625,-32.71484375,-1.46484375,0.0,0
1586284900.0687811,3,3,44.43359375,-37.109375,-38.57421875,3.90625,0.0,0
1586284900.0726874,3,3,-22.94921875,-36.1328125,-37.59765625,-17.08984375,0.0,0
1586284900.0765936,3,3,-54.19921875,-30.76171875,-31.25,-33.203125,0.0,0
1586284900.0805,3,3,-3.90625,-24.90234375,-34.1796875,-6.34765625,0.0,0
1586284900.0844061,3,3,36.1328125,-21.484375,-42.96875,26.85546875,0.0,0
1586284900.0883124,3,3,42.48046875,-20.01953125,-37.109375,41.015625,0.0,0
1586284900.0922186,3,3,-4.8828125,-20.99609375,-15.13671875,15.625,0.0,0
1586284900.096125,3,3,-53.22265625,-28.80859375,-14.16015625,-20.99609375,0.0,0
1586284900.1000311,3,3,-16.11328125,-22.94921875,-28.3203125,-11.23046875,0.0,0
1586284900.1039374,3,3,35.64453125,-26.3671875,-33.203125,19.53125,0.0,0
1586284900.1078436,3,3,41.50390625,-39.55078125,-33.69140625,25.390625,0.0,0
1586284900.11175,3,3,-4.8828125,-32.71484375,-33.69140625,-8.7890625,0.0,0
1586284900.1156561,3,3,-58.10546875,-29.296875,-48.828125,-41.50390625,0.0,0
1586284900.1195624,3,3,-52.734375,-32.71484375,-50.78125,-26.85546875,0.0,0
1586284900.1234686,3,3,25.87890625,-24.90234375,-30.76171875,1.953125,0.0,0
1586284900.127375,3,3,62.01171875,-26.3671875,-20.5078125,7.8125,0.0,0
1586284900.1312811,3,3,-12.6953125,-31.25,-21.97265625,-13.671875,0.0,0
1586284900.1351874,3,3,-65.4296875,-32.2265625,-28.80859375,-44.43359375,0.0,0
1586284900.1390936,3,3,-39.55078125,-39.55078125,-28.80859375,-47.8515625,0.0,0
1586284900.143,3,3,18.06640625,-44.921875,-26.3671875,-22.94921875,0.0,0
1586284900.1469061,3,3,43.9453125,-31.73828125,-39.55078125,-8.30078125,0.0,0
1586284900.1508124,3,3,-2.44140625,-20.01953125,-43.45703125,-36.62109375,0.0,0
1586284900.1547186,3,3,-78.125,-27.34375,-38.57421875,-63.4765625,0.0,0
1586284900.158625,3,3,-68.359375,-31.25,-33.69140625,-53.7109375,0.0,0
1586284900.1625311,3,3,-5.859375,-25.87890625,-25.87890625,-18.5546875,0.0,0
1586284900.1664374,3,3,31.25,-32.71484375,-25.390625,14.6484375,0.0,0
1586284900.1703436,3,3,-10.25390625,-38.57421875,-24.4140625,0.0,0.0,0
1586284900.17425,3,3,-64.94140625,-23.4375,-23.4375,-20.99609375,0.0,0
1586284900.1781561,3,3,-52.24609375,-24.4140625,-27.83203125,-20.01953125,0.0,0
1586284900.1820624,3,3,-6.34765625,-29.78515625,-22.94921875,-7.8125,0.0,0
1586284900.1859686,3,3,56.15234375,-23.4375,-17.08984375,17.08984375,0.0,0
1586284900.189875,3,3,40.52734375,-20.01953125,-21.484375,18.06640625,0.0,0
1586284900.1937811,3,3,-55.17578125,-22.4609375,-23.4375,-20.99609375,0.0,0
1586284900.1976874,3,3,-70.3125,-24.4140625,-29.296875,-39.55078125,0.0,0
1586284900.2015936,3,3,-8.7890625,-23.92578125,-31.73828125,-3.90625,0.0,0
1586284900.2055,3,3,37.109375,-26.85546875,-31.25,15.13671875,0.0,0
1586284900.2094061,3,3,28.80859375,-41.50390625,-32.71484375,-7.32421875,0.0,0
1586284900.2133124,3,3,-54.6875,-44.921875,-35.15625,-42.48046875,0.0,0
1586284900.2172186,3,3,-76.66015625,-37.59765625,-36.62109375,-47.36328125,0.0,0
1586284900.221125,3,3,-7.32421875,-34.1796875,-28.3203125,-12.6953125,0.0,0
1586284900.2250311,3,3,36.1328125,-27.34375,-21.484375,25.87890625,0.0,0
1586284900.2289374,3,3,14.16015625,-21.484375,-14.6484375,26.85546875,0.0,0
1586284900.2328436,3,3,-44.921875,-26.85546875,-19.04296875,-14.16015625,0.0,0
1586284900.23675,3,3,-67.3828125,-26.3671875,-21.484375,-39.0625,0.0,0
1586284900.2406561,3,3,-24.4140625,-27.83203125,-20.5078125,-36.1328125,0.0,0
1586284900.2445624,3,3,31.73828125,-41.015625,-37.59765625,-6.8359375,0.0,0
1586284900.2484686,3,3,25.390625,-47.8515625,-35.15625,20.01953125,0.0,0
1586284900.252375,3,3,-35.15625,-40.52734375,-24.90234375,-15.13671875,0.0,0
1586284900.2562811,3,3,-64.94140625,-31.25,-28.80859375,-40.52734375,0.0,0
1586284900.2601874,3,3,-27.83203125,-24.4140625,-29.78515625,-20.5078125,0.0,0
1586284900.2640936,3,3,29.296875,-28.80859375,-25.87890625,18.5546875,0.0,0
1586284900.268,3,3,27.34375,-33.69140625,-31.25,25.390625,0.0,0
1586284900.2719061,3,3,-33.203125,-32.2265625,-39.55078125,-18.06640625,0.0,0
1586284900.2758124,3,3,-61.5234375,-24.90234375,-36.1328125,-36.62109375,0.0,0
1586284900.2797186,3,3,-34.1796875,-28.3203125,-31.73828125,-4.8828125,0.0,0
1586284900.283625,3,3,27.83203125,-35.15625,-23.92578125,20.5078125,0.0,0
1586284900.2875311,3,3,43.9453125,-37.59765625,-31.73828125,23.4375,0.0,0
1586284900.2914374,3,3,-13.18359375,-39.55078125,-37.59765625,-10.25390625,0.0,0
1586284900.2953436,3,3,-68.84765625,-40.52734375,-24.90234375,-30.76171875,0.0,0
1586284900.29925,3,3,-55.6640625,-36.1328125,-17.578125,-28.80859375,0.0,0
1586284900.3031561,3,3,1.46484375,-32.71484375,-24.4140625,-0.9765625,0.0,0
1586284900.3070624,3,3,35.15625,-34.1796875,-36.1328125,17.578125,0.0,0
1586284900.3109686,3,3,0.48828125,-40.0390625,-37.109375,-12.6953125,0.0,0
1586284900.314875,3,3,-68.84765625,-40.52734375,-37.109375,-37.59765625,0.0,0
1586284900.3187811,3,3,-66.40625,-23.4375,-35.15625,-29.296875,0.0,0
1586284900.3226874,3,3,-4.39453125,-21.484375,-21.97265625,-1.953125,0.0,0
1586284900.3265936,3,3,44.43359375,-28.3203125,-6.8359375,19.04296875,0.0,0
1586284900.3305,3,3,10.25390625,-33.203125,-15.625,0.0,0.0,0
1586284900.3344061,3,3,-63.96484375,-35.64453125,-27.83203125,-32.2265625,0.0,0
1586284900.3383124,3,3,-75.68359375,-32.71484375,-34.1796875,-43.9453125,0.0,0
1586284900.3422186,3,3,-8.7890625,-32.2265625,-31.25,-9.765625,0.0,0
1586284900.346125,3,3,32.2265625,-23.4375,-26.3671875,19.04296875,0.0,0
1586284900.3500311,3,3,4.39453125,-21.484375,-36.62109375,-8.7890625,0.0,0
1586284900.3539374,3,3,-76.171875,-20.5078125,-34.66796875,-30.2734375,0.0,0
1586284900.3578436,3,3,-92.28515625,-16.6015625,-32.71484375,-34.66796875,0.0,0
1586284900.36175,3,3,-10.25390625,-12.20703125,-28.3203125,-6.8359375,0.0,0
1586284900.3656561,3,3,43.9453125,-12.6953125,-16.11328125,32.2265625,0.0,0
1586284900.3695624,3,3,25.390625,-24.4140625,-17.08984375,22.94921875,0.0,0
1586284900.3734686,3,3,-31.73828125,-25.390625,-29.296875,-7.32421875,0.0,0
1586284900.377375,3,3,-56.15234375,-27.34375,-37.109375,-33.203125,0.0,0
1586284900.3812811,3,3,-0.9765625,-25.87890625,-31.25,-13.671875,0.0,0
1586284900.3851874,3,3,51.26953125,-23.4375,-24.90234375,18.06640625,0.0,0
1586284900.3890936,3,3,15.625,-27.34375,-21.97265625,11.23046875,0.0,0
1586284900.393,3,3,-52.24609375,-25.87890625,-27.34375,-18.06640625,0.0,0
1586284900.3969061,3,3,-84.9609375,-25.87890625,-37.59765625,-40.52734375,0.0,0
1586284900.4008124,3,3,-53.22265625,-40.0390625,-37.109375,-21.97265625,0.0,0
1586284900.4047186,3,3,28.3203125,-36.1328125,-23.4375,11.71875,0.0,0
1586284900.408625,3,3,46.875,-26.3671875,-7.8125,15.625,0.0,0
1586284900.4125311,3,3,-25.87890625,-48.828125,-14.6484375,-12.20703125,0.0,0
1586284900.4164374,3,3,-62.5,-44.921875,-34.1796875,-57.12890625,0.0,0
1586284900.4203436,3,3,-29.296875,-27.83203125,-28.3203125,-45.8984375,0.0,0
1586284900.42425,3,3,17.08984375,-32.2265625,-22.94921875,1.46484375,0.0,0
1586284900.4281561,3,3,8.30078125,-25.87890625,-31.73828125,-4.8828125,0.0,0
1586284900.4320624,3,3,-38.57421875,-23.4375,-29.78515625,-31.25,0.0,0
1586284900.4359686,3,3,-63.4765625,-24.4140625,-25.87890625,-46.38671875,0.0,0
1586284900.439875,3,3,-53.7109375,-31.73828125,-28.3203125,-35.15625,0.0,0
1586284900.4437811,3,3,5.859375,-30.2734375,-35.15625,4.39453125,0.0,0
1586284900.4476874,3,3,33.69140625,-26.3671875,-44.921875,10.7421875,0.0,0
1586284900.4515936,3,3,-15.625,-42.48046875,-45.41015625,-31.25,0.0,0
1586284900.4555,3,3,-75.1953125,-45.8984375,-39.0625,-60.05859375,0.0,0
1586284900.4594061,3,3,-53.7109375,-27.34375,-27.34375,-48.33984375,0.0,0
1586284900.4633124,3,3,7.8125,-15.625,-17.578125,-5.859375,0.0,0
1586284900.4672186,3,3,15.13671875,-19.04296875,-22.94921875,-12.20703125,0.0,0
1586284900.471125,3,3,-24.90234375,-22.4609375,-28.80859375,-33.69140625,0.0,0
1586284900.4750311,3,3,-80.56640625,-30.76171875,-29.296875,-51.7578125,0.0,0
1586284900.4789374,3,3,-93.75,-40.52734375,-30.76171875,-64.94140625,0.0,0
1586284900.4828436,3,3,-19.04296875,-37.59765625,-34.1796875,-21.484375,0.0,0
1586284900.48675,3,3,39.55078125,-26.85546875,-37.59765625,17.578125,0.0,0
1586284900.4906561,3,3,8.7890625,-25.390625,-35.15625,-10.7421875,0.0,0
1586284900.4945624,3,3,-56.640625,-31.25,-39.0625,-42.48046875,0.0,0
1586284900.4984686,3,3,-62.01171875,-30.2734375,-38.0859375,-23.92578125,0.0,0
1586284900.502375,3,3,17.578125,-25.87890625,-19.53125,8.7890625,0.0,0
1586284900.5062811,3,3,66.89453125,-20.5078125,-6.8359375,23.92578125,0.0,0
1586284900.5101874,3,3,-1.953125,-19.53125,-17.08984375,2.9296875,0.0,0
1586284900.5140936,3,3,-79.1015625,-31.73828125,-20.99609375,-37.109375,0.0,0
1586284900.518,3,3,-74.70703125,-36.1328125,-24.90234375,-34.66796875,0.0,0
1586284900.5219061,3,3,-34.1796875,-25.87890625,-35.64453125,-16.11328125,0.0,0
1586284900.5258124,3,3,2.44140625,-27.34375,-41.015625,-6.8359375,0.0,0
1586284900.5297186,3,3,-15.625,-31.73828125,-40.52734375,-23.4375,0.0,0
1586284900.533625,3,3,-60.05859375,-29.78515625,-33.203125,-48.33984375,0.0,0
1586284900.5375311,3,3,-69.3359375,-30.2734375,-30.76171875,-47.8515625,0.0,0
1586284900.5414374,3,3,-16.6015625,-26.3671875,-40.52734375,-12.20703125,0.0,0
1586284900.5453436,3,3,29.296875,-21.484375,-35.15625,0.0,0.0,0
1586284900.54925,3,3,5.859375,-27.34375,-25.390625,-14.6484375,0.0,0
1586284900.5531561,3,3,-45.41015625,-31.25,-21.97265625,-27.34375,0.0,0
1586284900.5570624,3,3,-79.58984375,-26.85546875,-25.390625,-47.8515625,0.0,0
1586284900.5609686,3,3,-58.10546875,-30.2734375,-29.78515625,-30.2734375,0.0,0
1586284900.564875,3,3,-11.71875,-27.83203125,-25.390625,-7.8125,0.0,0
1586284900.5687811,3,3,16.6015625,-22.4609375,-21.484375,-14.16015625,0.0,0
1586284900.5726874,3,3,-30.76171875,-20.01953125,-24.90234375,-42.96875,0.0,0
1586284900.5765936,3,3,-71.77734375,-25.390625,-19.04296875,-51.26953125,0.0,0
1586284900.5805,3,3,-38.57421875,-36.1328125,-15.625,-30.76171875,0.0,0
1586284900.5844061,3,3,11.23046875,-38.57421875,-27.34375,-11.71875,0.0,0
1586284900.5883124,3,3,20.01953125,-30.2734375,-30.2734375,-4.8828125,0.0,0
1586284900.5922186,3,3,-29.296875,-20.01953125,-23.92578125,-24.90234375,0.0,0
1586284900.596125,3,3,-87.40234375,-20.5078125,-23.92578125,-47.8515625,0.0,0
1586284900.6000311,3,3,-75.1953125,-25.87890625,-27.83203125,-46.38671875,0.0,0
1586284900.6039374,3,3,-16.6015625,-21.484375,-31.25,-9.27734375,0.0,0
1586284900.6078436,3,3,3.41796875,-15.625,-31.25,-8.7890625,0.0,0
1586284900.61175,3,3,-28.3203125,-14.6484375,-33.69140625,-35.64453125,0.0,0
1586284900.6156561,3,3,-65.91796875,-29.78515625,-39.0625,-52.734375,0.0,0
1586284900.6195624,3,3,-40.0390625,-33.203125,-37.59765625,-41.50390625,0.0,0
1586284900.6234686,3,3,15.625,-21.97265625,-20.5078125,-17.08984375,0.0,0
1586284900.627375,3,3,34.1796875,-20.5078125,-21.484375,5.859375,0.0,0
1586284900.6312811,3,3,-11.23046875,-21.97265625,-29.296875,-19.53125,0.0,0
1586284900.6351874,3,3,-66.40625,-25.87890625,-20.5078125,-46.875,0.0,0
1586284900.6390936,3,3,-59.08203125,-25.390625,-28.80859375,-31.73828125,0.0,0
1586284900.643,3,3,19.04296875,-20.5078125,-32.2265625,-7.32421875,0.0,0
1586284900.6469061,3,3,45.8984375,-27.34375,-27.83203125,13.671875,0.0,0
1586284900.6508124,3,3,-18.06640625,-39.55078125,-36.62109375,-1.953125,0.0,0
1586284900.6547186,3,3,-62.01171875,-35.64453125,-42.96875,-20.99609375,0.0,0
1586284900.658625,3,3,-49.31640625,-26.3671875,-37.59765625,-14.6484375,0.0,0
1586284900.6625311,3,3,10.25390625,-28.3203125,-24.90234375,7.32421875,0.0,0
1586284900.6664374,3,3,54.6875,-24.4140625,-32.71484375,19.53125,0.0,0
1586284900.6703436,3,3,12.20703125,-18.5546875,-31.25,-3.90625,0.0,0
1586284900.67425,3,3,-54.6875,-17.578125,-9.27734375,-34.1796875,0.0,0
1586284900.6781561,3,3,-62.5,-27.83203125,-19.04296875,-42.96875,0.0,0
1586284900.6820624,3,3,-13.671875,-30.76171875,-28.80859375,-22.4609375,0.0,0
1586284900.6859686,3,3,26.85546875,-29.78515625,-30.76171875,-2.44140625,0.0,0
1586284900.689875,3,3,0.48828125,-23.4375,-30.76171875,-18.5546875,0.0,0
1586284900.6937811,3,3,-64.94140625,-17.578125,-25.87890625,-37.59765625,0.0,0
1586284900.6976874,3,3,-87.890625,-32.71484375,-27.83203125,-37.109375,0.0,0
1586284900.7015936,3,3,-41.50390625,-40.52734375,-25.390625,-15.625,0.0,0
1586284900.7055,3,3,17.08984375,-31.25,-25.390625,3.41796875,0.0,0
1586284900.7094061,3,3,16.6015625,-24.4140625,-23.92578125,-6.8359375,0.0,0
1586284900.7133124,3,3,-42.96875,-21.97265625,-34.1796875,-24.90234375,0.0,0
1586284900.7172186,3,3,-69.82421875,-25.390625,-40.52734375,-44.921875,0.0,0
1586284900.721125,3,3,-25.390625,-23.4375,-36.1328125,-25.87890625,0.0,0
1586284900.7250311,3,3,29.296875,-11.71875,-36.1328125,10.7421875,0.0,0
1586284900.7289374,3,3,23.4375,-8.7890625,-23.4375,4.39453125,0.0,0
1586284900.7328436,3,3,-46.38671875,-22.4609375,-23.92578125,-22.4609375,0.0,0
1586284900.73675,3,3,-81.0546875,-30.76171875,-28.80859375,-32.2265625,0.0,0
1586284900.7406561,3,3,-35.15625,-25.87890625,-25.87890625,-19.53125,0.0,0
1586284900.7445624,3,3,19.53125,-29.296875,-25.87890625,11.71875,0.0,0
1586284900.7484686,3,3,0.0,-29.296875,-26.85546875,7.8125,0.0,0
1586284900.752375,3,3,-49.31640625,-24.4140625,-26.85546875,-38.57421875,0.0,0
1586284900.7562811,3,3,-71.77734375,-29.296875,-26.85546875,-62.98828125,0.0,0
1586284900.7601874,3,3,-48.33984375,-30.2734375,-36.1328125,-35.15625,0.0,0
1586284900.7640936,3,3,10.7421875,-33.203125,-44.43359375,-8.30078125,0.0,0
1586284900.768,3,3,27.34375,-25.390625,-32.71484375,-13.18359375,0.0,0
1586284900.7719061,3,3,-12.20703125,-20.99609375,-23.4375,-37.109375,0.0,0
1586284900.7758124,3,3,-59.08203125,-18.06640625,-22.4609375,-60.546875,0.0,0
1586284900.7797186,3,3,-50.29296875,-23.92578125,-21.484375,-35.15625,0.0,0
1586284900.783625,3,3,7.8125,-42.96875,-17.08984375,7.32421875,0.0,0
1586284900.7875311,3,3,34.1796875,-41.015625,-10.7421875,15.625,0.0,0
1586284900.7914374,3,3,-10.25390625,-27.34375,-19.53125,-15.13671875,0.0,0
1586284900.7953436,3,3,-56.15234375,-22.4609375,-28.3203125,-35.64453125,0.0,0
1586284900.79925,3,3,-56.15234375,-20.01953125,-25.87890625,-28.80859375,0.0,0
1586284900.8031561,3,3,0.0,-20.99609375,-34.1796875,-1.953125,0.0,0
1586284900.8070624,3,3,25.87890625,-15.625,-42.48046875,11.71875,0.0,0
1586284900.8109686,3,3,-14.16015625,-10.7421875,-36.62109375,-12.6953125,0.0,0
1586284900.814875,3,3,-48.828125,-20.99609375,-34.1796875,-36.62109375,0.0,0
1586284900.8187811,3,3,-54.19921875,-32.71484375,-24.90234375,-33.69140625,0.0,0
1586284900.8226874,3,3,-8.7890625,-32.2265625,-29.296875,-6.34765625,0.0,0
1586284900.8265936,3,3,26.85546875,-26.85546875,-43.45703125,16.11328125,0.0,0
1586284900.8305,3,3,-9.27734375,-30.76171875,-40.0390625,-9.765625,0.0,0
1586284900.8344061,3,3,-70.3125,-32.2265625,-39.55078125,-31.73828125,0.0,0
1586284900.8383124,3,3,-64.453125,-24.4140625,-38.0859375,-34.1796875,0.0,0
1586284900.8422186,3,3,-0.48828125,-21.97265625,-32.71484375,-10.25390625,0.0,0
1586284900.846125,3,3,21.97265625,-35.64453125,-34.66796875,8.7890625,0.0,0
1586284900.8500311,3,3,4.39453125,-31.73828125,-44.43359375,-8.7890625,0.0,0
1586284900.8539374,3,3,-34.1796875,-16.6015625,-41.015625,-38.57421875,0.0,0
1586284900.8578436,3,3,-63.4765625,-33.203125,-36.62109375,-47.8515625,0.0,0
1586284900.86175,3,3,-25.87890625,-38.0859375,-38.0859375,-23.92578125,0.0,0
1586284900.8656561,3,3,35.64453125,-19.04296875,-19.53125,0.0,0.0,0
1586284900.8695624,3,3,24.4140625,-18.06640625,-11.71875,-2.9296875,0.0,0
1586284900.8734686,3,3,-73.73046875,-27.34375,-26.3671875,-41.9921875,0.0,0
1586284900.877375,3,3,-95.703125,-32.2265625,-33.203125,-54.6875,0.0,0
1586284900.8812811,3,3,-32.2265625,-28.3203125,-31.73828125,-23.92578125,0.0,0
1586284900.8851874,3,3,21.97265625,-18.06640625,-29.296875,-5.37109375,0.0,0
1586284900.8890936,3,3,16.11328125,-12.20703125,-14.6484375,-1.46484375,0.0,0
1586284900.893,3,3,-37.109375,-15.13671875,-12.6953125,-19.53125,0.0,0
1586284900.8969061,3,3,-88.37890625,-24.90234375,-26.3671875,-48.828125,0.0,0
1586284900.9008124,3,3,-40.0390625,-26.85546875,-21.97265625,-16.11328125,0.0,0
1586284900.9047186,3,3,30.2734375,-19.04296875,-21.97265625,4.8828125,0.0,0
1586284900.908625,3,3,12.20703125,-21.97265625,-21.97265625,-12.20703125,0.0,0
1586284900.9125311,3,3,-48.33984375,-31.25,-20.99609375,-34.66796875,0.0,0
1586284900.9164374,3,3,-74.21875,-29.296875,-30.2734375,-54.19921875,0.0,0
1586284900.9203436,3,3,-40.52734375,-26.3671875,-34.1796875,-32.71484375,0.0,0
1586284900.92425,3,3,14.6484375,-21.97265625,-20.5078125,9.27734375,0.0,0
1586284900.9281561,3,3,27.83203125,-16.11328125,-21.97265625,13.18359375,0.0,0
1586284900.9320624,3,3,-38.57421875,-22.94921875,-30.2734375,-24.90234375,0.0,0
1586284900.9359686,3,3,-89.35546875,-30.76171875,-31.25,-57.6171875,0.0,0
1586284900.939875,3,3,-56.15234375,-32.2265625,-40.52734375,-37.109375,0.0,0
1586284900.9437811,3,3,18.5546875,-33.69140625,-51.26953125,-2.44140625,0.0,0
1586284900.9476874,3,3,40.52734375,-33.69140625,-45.8984375,12.20703125,0.0,0
1586284900.9515936,3,3,-32.71484375,-35.15625,-34.1796875,-27.34375,0.0,0
1586284900.9555,3,3,-79.1015625,-30.76171875,-23.4375,-58.10546875,0.0,0
1586284900.9594061,3,3,-46.38671875,-24.4140625,-22.4609375,-27.34375,0.0,0
1586284900.9633124,3,3,13.18359375,-24.90234375,-23.4375,1.46484375,0.0,0
1586284900.9672186,3,3,25.87890625,-26.3671875,-22.4609375,-1.953125,0.0,0
1586284900.971125,3,3,-29.78515625,-31.25,-20.5078125,-20.5078125,0.0,0
1586284900.9750311,3,3,-69.3359375,-33.69140625,-24.90234375,-42.96875,0.0,0
1586284900.9789374,3,3,-56.15234375,-29.296875,-40.0390625,-36.1328125,0.0,0
1586284900.9828436,3,3,-13.671875,-17.08984375,-39.55078125,3.41796875,0.0,0
1586284900.98675,3,3,32.71484375,-15.13671875,-27.34375,21.484375,0.0,0
1586284900.9906561,3,3,7.8125,-31.25,-21.484375,-2.9296875,0.0,0
1586284900.9945624,3,3,-62.01171875,-33.69140625,-18.06640625,-47.36328125,0.0,0
1586284900.9984686,3,3,-77.1484375,-23.4375,-24.4140625,-43.9453125,0.0,0
1586284901.002375,4,3,-12.20703125,-17.578125,-34.66796875,-17.578125,0.0,0
1586284901.0062811,4,3,38.57421875,-28.3203125,-30.76171875,3.41796875,0.0,0
1586284901.0101874,4,3,11.71875,-36.62109375,-20.01953125,6.34765625,0.0,0
1586284901.0140936,4,3,-53.22265625,-26.85546875,-23.92578125,-31.25,0.0,0
1586284901.018,4,3,-62.5,-24.90234375,-24.90234375,-34.1796875,0.0,0
1586284901.0219061,4,3,-0.9765625,-22.94921875,-26.3671875,6.8359375,0.0,0
1586284901.0258124,4,3,38.57421875,-25.87890625,-31.73828125,30.76171875,0.0,0
1586284901.0297186,4,3,16.11328125,-26.85546875,-27.34375,21.97265625,0.0,0
1586284901.033625,4,3,-44.921875,-24.90234375,-19.04296875,-10.7421875,0.0,0
1586284901.0375311,4,3,-60.05859375,-28.80859375,-24.4140625,-39.0625,0.0,0
1586284901.0414374,4,3,-19.53125,-27.34375,-26.85546875,-19.53125,0.0,0
1586284901.0453436,4,3,28.3203125,-24.90234375,-19.04296875,6.8359375,0.0,0
1586284901.04925,4,3,24.4140625,-23.4375,-13.671875,0.0,0.0,0
1586284901.0531561,4,3,-42.48046875,-28.80859375,-23.4375,-36.1328125,0.0,0
1586284901.0570624,4,3,-79.1015625,-23.92578125,-32.71484375,-56.640625,0.0,0
1586284901.0609686,4,3,-26.3671875,-14.6484375,-19.53125,-22.4609375,0.0,0
1586284901.064875,4,3,31.73828125,-15.625,-9.765625,10.25390625,0.0,0
1586284901.0687811,4,3,13.18359375,-23.4375,-20.99609375,-11.71875,0.0,0
1586284901.0726874,4,3,-45.41015625,-29.78515625,-25.87890625,-41.015625,0.0,0
1586284901.0765936,4,3,-70.80078125,-35.64453125,-18.5546875,-59.08203125,0.0,0
1586284901.0805,4,3,-49.31640625,-38.57421875,-15.625,-31.25,0.0,0
1586284901.0844061,4,3,22.4609375,-26.3671875,-15.13671875,4.8828125,0.0,0
1586284901.0883124,4,3,41.015625,-16.11328125,-23.4375,0.0,0.0,0
1586284901.0922186,4,3,-33.69140625,-17.08984375,-35.15625,-30.76171875,0.0,0
1586284901.096125,4,3,-65.4296875,-20.01953125,-31.73828125,-43.9453125,0.0,0
1586284901.1000311,4,3,-36.1328125,-16.6015625,-39.0625,-20.99609375,0.0,0
1586284901.1039374,4,3,8.7890625,-25.87890625,-46.38671875,4.8828125,0.0,0
1586284901.1078436,4,3,22.4609375,-36.1328125,-39.0625,6.34765625,0.0,0
1586284901.11175,4,3,-21.97265625,-26.85546875,-26.85546875,-14.6484375,0.0,0
1586284901.1156561,4,3,-67.3828125,-21.484375,-15.13671875,-41.9921875,0.0,0
1586284901.1195624,4,3,-41.50390625,-26.85546875,-19.53125,-41.9921875,0.0,0
